%%            108.00000             3.00000    0             0.12700
% LAB  survey ------------------
% wanted position:  l, b, RA, DEC, and interpolated  NH
%108.00 ;   3.00 ; 339.67 ;  61.96 ;  0.909E+22
% nearest position: l, b, RA, DEC, and observed NH
%108.00 ;   3.00 ; 339.67 ;  61.96 ;  0.909E+22
% GASS III survey --------------
% NH - median within 6 arcmin radius   0.00    
% NH - mean within specified beam      0.00    
% EBHIS survey -----------------
% NH  within specified beam           0.958E+22
%%EBHIS   621  datapoints: v_lsr [km/s] and T_B [K]
    -399.25    -0.074
    -397.96     0.003
    -396.68    -0.087
    -395.39     0.009
    -394.10     0.098
    -392.81     0.002
    -391.52    -0.104
    -390.23    -0.183
    -388.95    -0.108
    -387.66    -0.044
    -386.37    -0.002
    -385.08    -0.013
    -383.79     0.057
    -382.50     0.004
    -381.22    -0.019
    -379.93     0.031
    -378.64    -0.002
    -377.35     0.057
    -376.06     0.090
    -374.78     0.043
    -373.49     0.064
    -372.20     0.019
    -370.91     0.019
    -369.62    -0.025
    -368.33     0.055
    -367.05    -0.005
    -365.76    -0.138
    -364.47    -0.038
    -363.18    -0.029
    -361.89    -0.062
    -360.60    -0.088
    -359.32    -0.071
    -358.03    -0.132
    -356.74     0.005
    -355.45    -0.053
    -354.16    -0.051
    -352.88     0.032
    -351.59     0.027
    -350.30    -0.050
    -349.01    -0.056
    -347.72     0.007
    -346.43     0.082
    -345.15    -0.088
    -343.86     0.039
    -342.57     0.031
    -341.28     0.054
    -339.99     0.025
    -338.70     0.001
    -337.42     0.026
    -336.13     0.024
    -334.84    -0.099
    -333.55     0.001
    -332.26    -0.052
    -330.98     0.047
    -329.69     0.022
    -328.40    -0.093
    -327.11     0.013
    -325.82     0.116
    -324.53     0.065
    -323.25    -0.092
    -321.96    -0.082
    -320.67    -0.002
    -319.38     0.010
    -318.09     0.031
    -316.80     0.020
    -315.52    -0.058
    -314.23     0.026
    -312.94     0.154
    -311.65     0.098
    -310.36     0.033
    -309.08    -0.016
    -307.79     0.018
    -306.50     0.102
    -305.21     0.103
    -303.92     0.025
    -302.63     0.063
    -301.35    -0.019
    -300.06    -0.030
    -298.77    -0.021
    -297.48     0.066
    -296.19    -0.104
    -294.90    -0.039
    -293.62     0.062
    -292.33     0.091
    -291.04     0.075
    -289.75     0.041
    -288.46     0.005
    -287.18     0.072
    -285.89    -0.015
    -284.60    -0.068
    -283.31    -0.092
    -282.02    -0.075
    -280.73    -0.098
    -279.45    -0.079
    -278.16    -0.159
    -276.87    -0.049
    -275.58    -0.016
    -274.29    -0.055
    -273.00    -0.144
    -271.72    -0.117
    -270.43    -0.092
    -269.14    -0.066
    -267.85    -0.018
    -266.56     0.058
    -265.28     0.067
    -263.99    -0.015
    -262.70     0.063
    -261.41     0.148
    -260.12     0.139
    -258.83    -0.183
    -257.55    -0.027
    -256.26     0.036
    -254.97     0.097
    -253.68    -0.007
    -252.39     0.094
    -251.10    -0.025
    -249.82     0.006
    -248.53     0.055
    -247.24     0.048
    -245.95    -0.037
    -244.66    -0.001
    -243.38     0.065
    -242.09     0.096
    -240.80     0.061
    -239.51     0.111
    -238.22    -0.080
    -236.93     0.026
    -235.65     0.082
    -234.36     0.111
    -233.07     0.002
    -231.78    -0.031
    -230.49    -0.032
    -229.20    -0.074
    -227.92     0.006
    -226.63     0.042
    -225.34     0.059
    -224.05    -0.081
    -222.76    -0.016
    -221.48     0.013
    -220.19     0.023
    -218.90    -0.032
    -217.61    -0.033
    -216.32     0.006
    -215.03    -0.021
    -213.75    -0.014
    -212.46    -0.074
    -211.17     0.084
    -209.88     0.105
    -208.59    -0.115
    -207.30    -0.105
    -206.02    -0.003
    -204.73     0.017
    -203.44    -0.058
    -202.15     0.037
    -200.86     0.088
    -199.58    -0.004
    -198.29     0.063
    -197.00     0.000
    -195.71    -0.151
    -194.42    -0.091
    -193.13     0.029
    -191.85     0.022
    -190.56    -0.037
    -189.27     0.014
    -187.98    -0.069
    -186.69    -0.002
    -185.40    -0.047
    -184.12    -0.127
    -182.83    -0.070
    -181.54    -0.065
    -180.25     0.045
    -178.96     0.074
    -177.68    -0.005
    -176.39     0.041
    -175.10     0.091
    -173.81     0.078
    -172.52    -0.059
    -171.23    -0.029
    -169.95     0.007
    -168.66     0.082
    -167.37    -0.062
    -166.08    -0.028
    -164.79     0.103
    -163.50     0.087
    -162.22    -0.104
    -160.93     0.088
    -159.64     0.100
    -158.35     0.045
    -157.06     0.173
    -155.78     0.216
    -154.49     0.189
    -153.20     0.198
    -151.91     0.200
    -150.62     0.344
    -149.33     0.544
    -148.05     0.786
    -146.76     0.768
    -145.47     0.759
    -144.18     0.695
    -142.89     0.851
    -141.60     0.872
    -140.32     0.907
    -139.03     0.921
    -137.74     0.916
    -136.45     0.919
    -135.16     1.019
    -133.88     1.194
    -132.59     1.340
    -131.30     1.490
    -130.01     1.656
    -128.72     1.895
    -127.43     2.250
    -126.15     2.298
    -124.86     2.263
    -123.57     2.771
    -122.28     3.182
    -120.99     3.235
    -119.70     3.441
    -118.42     3.728
    -117.13     4.040
    -115.84     4.485
    -114.55     4.964
    -113.26     5.311
    -111.98     5.841
    -110.69     6.511
    -109.40     7.590
    -108.11     8.923
    -106.82    11.000
    -105.53    14.695
    -104.25    20.874
    -102.96    29.516
    -101.67    37.503
    -100.38    37.592
     -99.09    30.438
     -97.80    24.822
     -96.52    26.491
     -95.23    31.663
     -93.94    34.764
     -92.65    30.539
     -91.36    22.645
     -90.08    16.371
     -88.79    14.373
     -87.50    15.691
     -86.21    19.857
     -84.92    26.748
     -83.63    34.173
     -82.35    40.826
     -81.06    42.818
     -79.77    39.757
     -78.48    36.216
     -77.19    36.232
     -75.90    39.026
     -74.62    44.103
     -73.33    50.342
     -72.04    59.387
     -70.75    74.621
     -69.46    85.308
     -68.18    88.520
     -66.89    89.288
     -65.60    89.437
     -64.31    96.779
     -63.02    85.004
     -61.73    67.631
     -60.45    51.066
     -59.16    39.991
     -57.87    34.532
     -56.58    31.451
     -55.29    29.151
     -54.00    28.766
     -52.72    29.484
     -51.43    30.538
     -50.14    31.802
     -48.85    34.180
     -47.56    38.643
     -46.28    43.949
     -44.99    49.073
     -43.70    51.010
     -42.41    46.887
     -41.12    39.505
     -39.83    32.573
     -38.55    27.849
     -37.26    26.041
     -35.97    25.025
     -34.68    23.418
     -33.39    20.271
     -32.10    17.071
     -30.82    16.910
     -29.53    19.624
     -28.24    24.819
     -26.95    28.352
     -25.66    25.312
     -24.38    19.768
     -23.09    16.524
     -21.80    17.159
     -20.51    21.004
     -19.22    26.535
     -17.93    33.250
     -16.65    41.244
     -15.36    51.180
     -14.07    61.498
     -12.78    69.453
     -11.49    73.963
     -10.20    79.294
      -8.92    85.341
      -7.63    86.087
      -6.34    79.690
      -5.05    75.685
      -3.76    75.297
      -2.48    73.620
      -1.19    72.821
       0.10    72.477
       1.39    71.184
       2.68    68.048
       3.97    63.264
       5.25    56.655
       6.54    44.488
       7.83    31.030
       9.12    21.569
      10.41    16.648
      11.70    12.873
      12.98     9.576
      14.27     6.911
      15.56     4.686
      16.85     3.102
      18.14     2.018
      19.42     1.376
      20.71     0.781
      22.00     0.635
      23.29     0.403
      24.58     0.325
      25.87     0.230
      27.15     0.090
      28.44     0.128
      29.73     0.020
      31.02     0.042
      32.31     0.007
      33.60     0.215
      34.88     0.048
      36.17    -0.181
      37.46    -0.037
      38.75     0.009
      40.04     0.088
      41.32     0.099
      42.61     0.074
      43.90     0.025
      45.19     0.017
      46.48    -0.084
      47.77    -0.012
      49.05    -0.036
      50.34    -0.004
      51.63    -0.002
      52.92    -0.020
      54.21    -0.126
      55.50     0.043
      56.78     0.122
      58.07    -0.043
      59.36    -0.131
      60.65    -0.059
      61.94     0.037
      63.22     0.012
      64.51    -0.017
      65.80     0.003
      67.09     0.025
      68.38     0.020
      69.67     0.040
      70.95    -0.013
      72.24     0.071
      73.53     0.038
      74.82     0.008
      76.11    -0.061
      77.40     0.048
      78.68    -0.084
      79.97    -0.029
      81.26    -0.045
      82.55     0.083
      83.84     0.034
      85.12    -0.093
      86.41    -0.064
      87.70     0.060
      88.99     0.132
      90.28     0.077
      91.57    -0.095
      92.85    -0.056
      94.14    -0.150
      95.43    -0.111
      96.72    -0.047
      98.01    -0.026
      99.30    -0.037
     100.58     0.080
     101.87     0.150
     103.16     0.029
     104.45     0.015
     105.74     0.029
     107.02    -0.056
     108.31    -0.048
     109.60    -0.006
     110.89     0.101
     112.18     0.041
     113.47     0.087
     114.75    -0.018
     116.04    -0.028
     117.33    -0.046
     118.62     0.066
     119.91    -0.030
     121.20     0.041
     122.48    -0.086
     123.77    -0.007
     125.06     0.012
     126.35    -0.004
     127.64     0.204
     128.92     0.130
     130.21    -0.005
     131.50    -0.073
     132.79    -0.012
     134.08    -0.118
     135.37    -0.073
     136.65    -0.118
     137.94    -0.163
     139.23    -0.113
     140.52    -0.016
     141.81    -0.018
     143.09     0.001
     144.38    -0.051
     145.67    -0.017
     146.96     0.023
     148.25     0.093
     149.54    -0.000
     150.82     0.041
     152.11    -0.064
     153.40     0.033
     154.69    -0.006
     155.98     0.088
     157.27    -0.003
     158.55    -0.081
     159.84     0.020
     161.13    -0.011
     162.42    -0.014
     163.71    -0.094
     164.99    -0.039
     166.28    -0.078
     167.57    -0.077
     168.86    -0.152
     170.15    -0.038
     171.44     0.114
     172.72     0.007
     174.01     0.060
     175.30     0.110
     176.59    -0.028
     177.88    -0.061
     179.17     0.035
     180.45     0.119
     181.74     0.126
     183.03     0.021
     184.32    -0.067
     185.61    -0.101
     186.89    -0.034
     188.18    -0.066
     189.47    -0.057
     190.76    -0.055
     192.05    -0.002
     193.34     0.040
     194.62     0.014
     195.91    -0.127
     197.20    -0.055
     198.49     0.130
     199.78     0.057
     201.07     0.064
     202.35    -0.028
     203.64     0.074
     204.93    -0.000
     206.22     0.059
     207.51     0.050
     208.79    -0.014
     210.08    -0.017
     211.37    -0.021
     212.66    -0.128
     213.95    -0.003
     215.24     0.000
     216.52    -0.025
     217.81    -0.051
     219.10     0.008
     220.39     0.061
     221.68     0.095
     222.97     0.048
     224.25     0.002
     225.54     0.130
     226.83     0.032
     228.12     0.081
     229.41     0.080
     230.69     0.063
     231.98     0.053
     233.27     0.046
     234.56     0.058
     235.85    -0.088
     237.14    -0.056
     238.42     0.010
     239.71    -0.045
     241.00     0.027
     242.29    -0.029
     243.58    -0.001
     244.87     0.108
     246.15    -0.112
     247.44    -0.019
     248.73     0.060
     250.02     0.128
     251.31     0.060
     252.59    -0.073
     253.88    -0.070
     255.17     0.097
     256.46    -0.014
     257.75    -0.036
     259.04    -0.024
     260.32     0.005
     261.61    -0.003
     262.90    -0.123
     264.19    -0.118
     265.48     0.034
     266.77     0.026
     268.05     0.025
     269.34     0.055
     270.63    -0.021
     271.92     0.016
     273.21     0.022
     274.49     0.007
     275.78     0.010
     277.07     0.035
     278.36     0.088
     279.65     0.044
     280.94     0.085
     282.22     0.058
     283.51    -0.029
     284.80     0.074
     286.09     0.059
     287.38     0.026
     288.67     0.093
     289.95     0.058
     291.24     0.104
     292.53     0.083
     293.82    -0.110
     295.11    -0.009
     296.39    -0.005
     297.68    -0.028
     298.97    -0.041
     300.26     0.053
     301.55    -0.075
     302.84     0.022
     304.12     0.121
     305.41     0.027
     306.70    -0.003
     307.99     0.083
     309.28    -0.093
     310.57     0.033
     311.85    -0.017
     313.14    -0.044
     314.43     0.065
     315.72     0.093
     317.01     0.023
     318.29    -0.025
     319.58     0.046
     320.87     0.151
     322.16     0.033
     323.45    -0.051
     324.74    -0.037
     326.02    -0.098
     327.31    -0.024
     328.60     0.038
     329.89     0.032
     331.18     0.014
     332.47     0.049
     333.75     0.044
     335.04    -0.101
     336.33    -0.111
     337.62    -0.005
     338.91    -0.011
     340.19     0.006
     341.48     0.024
     342.77     0.022
     344.06    -0.005
     345.35     0.005
     346.64    -0.039
     347.92    -0.102
     349.21     0.033
     350.50     0.004
     351.79    -0.075
     353.08    -0.007
     354.37    -0.045
     355.65     0.010
     356.94     0.084
     358.23     0.018
     359.52     0.057
     360.81     0.110
     362.09     0.051
     363.38     0.088
     364.67    -0.075
     365.96    -0.091
     367.25    -0.075
     368.54     0.015
     369.82     0.067
     371.11     0.024
     372.40     0.124
     373.69     0.048
     374.98    -0.106
     376.27    -0.051
     377.55     0.110
     378.84    -0.104
     380.13    -0.087
     381.42    -0.009
     382.71    -0.054
     383.99    -0.018
     385.28    -0.054
     386.57    -0.031
     387.86     0.030
     389.15    -0.020
     390.44     0.004
     391.72     0.018
     393.01     0.074
     394.30    -0.037
     395.59     0.052
     396.88     0.077
     398.17    -0.012
     399.45    -0.060
%%GASS      0  datapoints: v_lsr [km/s] and T_B [K] for beam weighted average and median within 6 arcmin
%%LAB     777  datapoints: v_lsr [km/s] and T_B [K]
    -399.87    -0.009
    -398.83    -0.006
    -397.80    -0.026
    -396.77    -0.178
    -395.74     0.067
    -394.71     0.185
    -393.68    -0.133
    -392.65    -0.027
    -391.62    -0.044
    -390.59    -0.035
    -389.56    -0.093
    -388.53     0.029
    -387.50    -0.038
    -386.47     0.010
    -385.44    -0.029
    -384.41    -0.044
    -383.38     0.080
    -382.35     0.105
    -381.31    -0.026
    -380.28     0.111
    -379.25    -0.029
    -378.22     0.156
    -377.19     0.107
    -376.16     0.110
    -375.13    -0.083
    -374.10    -0.062
    -373.07     0.092
    -372.04     0.005
    -371.01     0.026
    -369.98     0.125
    -368.95    -0.002
    -367.92     0.058
    -366.89    -0.044
    -365.86    -0.029
    -364.83    -0.044
    -363.79    -0.129
    -362.76    -0.008
    -361.73     0.083
    -360.70    -0.083
    -359.67    -0.090
    -358.64     0.095
    -357.61    -0.011
    -356.58    -0.027
    -355.55    -0.121
    -354.52    -0.041
    -353.49     0.016
    -352.46    -0.023
    -351.43    -0.026
    -350.40     0.108
    -349.37    -0.047
    -348.34    -0.087
    -347.31     0.047
    -346.28    -0.074
    -345.24     0.017
    -344.21    -0.045
    -343.18    -0.071
    -342.15     0.182
    -341.12    -0.068
    -340.09    -0.072
    -339.06    -0.023
    -338.03    -0.011
    -337.00    -0.057
    -335.97    -0.042
    -334.94     0.074
    -333.91    -0.078
    -332.88    -0.053
    -331.85    -0.002
    -330.82     0.046
    -329.79     0.055
    -328.76     0.034
    -327.72     0.043
    -326.69    -0.072
    -325.66     0.032
    -324.63    -0.023
    -323.60     0.116
    -322.57    -0.050
    -321.54    -0.044
    -320.51     0.094
    -319.48     0.096
    -318.45    -0.044
    -317.42     0.008
    -316.39    -0.017
    -315.36     0.055
    -314.33     0.174
    -313.30     0.002
    -312.27    -0.105
    -311.24     0.068
    -310.20    -0.077
    -309.17     0.116
    -308.14    -0.014
    -307.11     0.008
    -306.08    -0.108
    -305.05    -0.071
    -304.02     0.085
    -302.99     0.028
    -301.96     0.073
    -300.93    -0.120
    -299.90    -0.112
    -298.87    -0.089
    -297.84    -0.026
    -296.81     0.002
    -295.78    -0.038
    -294.75    -0.124
    -293.72     0.171
    -292.68     0.204
    -291.65     0.086
    -290.62     0.083
    -289.59     0.043
    -288.56    -0.000
    -287.53    -0.038
    -286.50     0.101
    -285.47    -0.015
    -284.44    -0.053
    -283.41    -0.105
    -282.38     0.190
    -281.35    -0.006
    -280.32    -0.074
    -279.29     0.052
    -278.26    -0.021
    -277.23    -0.186
    -276.20     0.011
    -275.16    -0.147
    -274.13     0.176
    -273.10     0.008
    -272.07    -0.030
    -271.04    -0.077
    -270.01     0.065
    -268.98     0.049
    -267.95    -0.126
    -266.92     0.102
    -265.89     0.114
    -264.86    -0.114
    -263.83     0.129
    -262.80     0.043
    -261.77     0.155
    -260.74     0.002
    -259.71    -0.100
    -258.68     0.079
    -257.65    -0.026
    -256.61     0.017
    -255.58     0.037
    -254.55     0.010
    -253.52     0.017
    -252.49    -0.094
    -251.46     0.102
    -250.43    -0.069
    -249.40     0.165
    -248.37    -0.065
    -247.34    -0.045
    -246.31     0.123
    -245.28     0.019
    -244.25    -0.051
    -243.22     0.113
    -242.19     0.107
    -241.16     0.117
    -240.13    -0.092
    -239.09    -0.012
    -238.06     0.013
    -237.03     0.111
    -236.00     0.043
    -234.97     0.010
    -233.94     0.073
    -232.91     0.114
    -231.88    -0.094
    -230.85    -0.005
    -229.82    -0.017
    -228.79    -0.103
    -227.76    -0.012
    -226.73    -0.012
    -225.70    -0.115
    -224.67    -0.044
    -223.64    -0.060
    -222.61     0.023
    -221.57    -0.024
    -220.54     0.058
    -219.51    -0.129
    -218.48    -0.012
    -217.45    -0.026
    -216.42    -0.087
    -215.39     0.129
    -214.36     0.020
    -213.33     0.040
    -212.30     0.108
    -211.27     0.005
    -210.24     0.041
    -209.21    -0.087
    -208.18     0.105
    -207.15    -0.002
    -206.12     0.152
    -205.09    -0.081
    -204.05    -0.017
    -203.02    -0.081
    -201.99     0.029
    -200.96     0.094
    -199.93    -0.027
    -198.90     0.079
    -197.87     0.070
    -196.84     0.111
    -195.81     0.052
    -194.78     0.147
    -193.75    -0.080
    -192.72    -0.120
    -191.69     0.135
    -190.66     0.152
    -189.63     0.023
    -188.60    -0.014
    -187.57     0.131
    -186.54    -0.056
    -185.50     0.173
    -184.47    -0.015
    -183.44     0.149
    -182.41     0.029
    -181.38    -0.015
    -180.35    -0.102
    -179.32     0.020
    -178.29    -0.075
    -177.26     0.095
    -176.23     0.032
    -175.20    -0.071
    -174.17     0.028
    -173.14     0.108
    -172.11    -0.038
    -171.08     0.214
    -170.05    -0.130
    -169.02     0.052
    -167.98    -0.103
    -166.95     0.150
    -165.92     0.052
    -164.89    -0.021
    -163.86    -0.044
    -162.83     0.002
    -161.80    -0.002
    -160.77    -0.054
    -159.74    -0.024
    -158.71    -0.008
    -157.68     0.085
    -156.65     0.064
    -155.62    -0.029
    -154.59     0.086
    -153.56     0.134
    -152.53     0.107
    -151.50     0.125
    -150.46     0.070
    -149.43     0.193
    -148.40     0.493
    -147.37     0.411
    -146.34     0.522
    -145.31     0.467
    -144.28     0.613
    -143.25     0.574
    -142.22     0.663
    -141.19     0.574
    -140.16     0.716
    -139.13     0.572
    -138.10     0.634
