%%            108.00000             2.00000    0             0.12700
% LAB  survey ------------------
% wanted position:  l, b, RA, DEC, and interpolated  NH
%108.00 ;   2.00 ; 340.68 ;  61.08 ;  0.839E+22
% nearest position: l, b, RA, DEC, and observed NH
%108.00 ;   2.00 ; 340.68 ;  61.08 ;  0.839E+22
% GASS III survey --------------
% NH - median within 6 arcmin radius   0.00    
% NH - mean within specified beam      0.00    
% EBHIS survey -----------------
% NH  within specified beam           0.846E+22
%%EBHIS   621  datapoints: v_lsr [km/s] and T_B [K]
    -399.25    -0.030
    -397.96    -0.017
    -396.68    -0.054
    -395.39     0.041
    -394.10     0.044
    -392.81    -0.111
    -391.52    -0.056
    -390.23    -0.022
    -388.95     0.032
    -387.66     0.072
    -386.37     0.010
    -385.08    -0.072
    -383.79     0.073
    -382.50    -0.113
    -381.22    -0.058
    -379.93    -0.008
    -378.64     0.050
    -377.35     0.061
    -376.06    -0.025
    -374.78     0.026
    -373.49    -0.129
    -372.20    -0.094
    -370.91     0.027
    -369.62     0.020
    -368.33    -0.041
    -367.05    -0.067
    -365.76    -0.087
    -364.47    -0.016
    -363.18     0.030
    -361.89     0.052
    -360.60    -0.018
    -359.32    -0.088
    -358.03    -0.073
    -356.74     0.234
    -355.45     0.234
    -354.16    -0.051
    -352.88    -0.053
    -351.59    -0.060
    -350.30    -0.096
    -349.01    -0.142
    -347.72     0.029
    -346.43     0.036
    -345.15    -0.108
    -343.86    -0.118
    -342.57     0.025
    -341.28     0.062
    -339.99    -0.012
    -338.70     0.093
    -337.42     0.088
    -336.13    -0.029
    -334.84     0.002
    -333.55    -0.003
    -332.26     0.128
    -330.98     0.100
    -329.69     0.105
    -328.40     0.062
    -327.11    -0.005
    -325.82     0.110
    -324.53     0.116
    -323.25     0.022
    -321.96    -0.091
    -320.67    -0.035
    -319.38     0.080
    -318.09     0.112
    -316.80    -0.005
    -315.52    -0.155
    -314.23    -0.016
    -312.94     0.095
    -311.65    -0.029
    -310.36    -0.154
    -309.08    -0.079
    -307.79    -0.194
    -306.50    -0.131
    -305.21     0.011
    -303.92     0.084
    -302.63    -0.087
    -301.35     0.026
    -300.06     0.054
    -298.77    -0.110
    -297.48    -0.069
    -296.19     0.015
    -294.90    -0.142
    -293.62     0.049
    -292.33     0.038
    -291.04     0.037
    -289.75    -0.031
    -288.46     0.001
    -287.18     0.112
    -285.89    -0.030
    -284.60     0.003
    -283.31    -0.037
    -282.02     0.027
    -280.73     0.135
    -279.45     0.034
    -278.16    -0.150
    -276.87    -0.028
    -275.58    -0.060
    -274.29    -0.018
    -273.00    -0.067
    -271.72    -0.106
    -270.43    -0.050
    -269.14    -0.027
    -267.85    -0.048
    -266.56    -0.022
    -265.28     0.085
    -263.99     0.056
    -262.70    -0.102
    -261.41    -0.035
    -260.12     0.171
    -258.83     0.139
    -257.55     0.057
    -256.26     0.100
    -254.97     0.079
    -253.68     0.085
    -252.39    -0.020
    -251.10    -0.013
    -249.82     0.128
    -248.53    -0.073
    -247.24    -0.102
    -245.95    -0.006
    -244.66    -0.051
    -243.38     0.014
    -242.09    -0.072
    -240.80     0.042
    -239.51     0.189
    -238.22     0.004
    -236.93    -0.318
    -235.65     0.021
    -234.36     0.048
    -233.07    -0.027
    -231.78     0.049
    -230.49     0.110
    -229.20     0.236
    -227.92     0.046
    -226.63    -0.153
    -225.34    -0.029
    -224.05     0.038
    -222.76     0.188
    -221.48     0.047
    -220.19     0.025
    -218.90     0.072
    -217.61    -0.024
    -216.32    -0.007
    -215.03    -0.091
    -213.75    -0.098
    -212.46    -0.079
    -211.17     0.062
    -209.88    -0.044
    -208.59    -0.023
    -207.30    -0.021
    -206.02     0.048
    -204.73     0.013
    -203.44     0.048
    -202.15     0.003
    -200.86     0.129
    -199.58     0.018
    -198.29     0.032
    -197.00     0.096
    -195.71    -0.057
    -194.42    -0.106
    -193.13    -0.030
    -191.85    -0.034
    -190.56    -0.147
    -189.27     0.031
    -187.98     0.046
    -186.69     0.175
    -185.40    -0.001
    -184.12    -0.028
    -182.83    -0.150
    -181.54    -0.068
    -180.25     0.067
    -178.96     0.087
    -177.68    -0.009
    -176.39     0.010
    -175.10     0.060
    -173.81     0.066
    -172.52     0.116
    -171.23     0.080
    -169.95    -0.038
    -168.66     0.106
    -167.37     0.036
    -166.08     0.017
    -164.79     0.056
    -163.50     0.004
    -162.22    -0.003
    -160.93    -0.028
    -159.64     0.078
    -158.35     0.134
    -157.06     0.100
    -155.78     0.129
    -154.49     0.248
    -153.20     0.254
    -151.91     0.289
    -150.62     0.210
    -149.33     0.251
    -148.05     0.444
    -146.76     0.451
    -145.47     0.512
    -144.18     0.577
    -142.89     0.646
    -141.60     0.570
    -140.32     0.631
    -139.03     0.778
    -137.74     0.938
    -136.45     1.015
    -135.16     1.097
    -133.88     1.293
    -132.59     1.475
    -131.30     1.652
    -130.01     1.939
    -128.72     2.211
    -127.43     2.653
    -126.15     2.947
    -124.86     3.061
    -123.57     3.763
    -122.28     4.210
    -120.99     4.309
    -119.70     4.414
    -118.42     4.583
    -117.13     4.587
    -115.84     4.745
    -114.55     4.639
    -113.26     4.671
    -111.98     4.626
    -110.69     4.572
    -109.40     4.706
    -108.11     5.099
    -106.82     5.970
    -105.53     8.871
    -104.25    14.434
    -102.96    22.611
    -101.67    29.754
    -100.38    31.934
     -99.09    31.202
     -97.80    32.502
     -96.52    34.301
     -95.23    33.492
     -93.94    31.165
     -92.65    29.148
     -91.36    26.637
     -90.08    22.398
     -88.79    15.902
     -87.50    10.150
     -86.21     7.508
     -84.92     6.883
     -83.63     6.924
     -82.35     7.601
     -81.06     8.528
     -79.77    10.099
     -78.48    12.665
     -77.19    17.824
     -75.90    26.242
     -74.62    35.643
     -73.33    44.661
     -72.04    52.881
     -70.75    62.117
     -69.46    67.307
     -68.18    64.407
     -66.89    58.856
     -65.60    49.254
     -64.31    46.505
     -63.02    43.898
     -61.73    45.939
     -60.45    53.276
     -59.16    60.915
     -57.87    63.469
     -56.58    60.158
     -55.29    52.431
     -54.00    42.225
     -52.72    32.598
     -51.43    27.198
     -50.14    24.600
     -48.85    24.212
     -47.56    25.246
     -46.28    26.632
     -44.99    27.977
     -43.70    27.828
     -42.41    26.143
     -41.12    23.337
     -39.83    20.282
     -38.55    18.378
     -37.26    19.077
     -35.97    22.618
     -34.68    31.961
     -33.39    44.015
     -32.10    52.058
     -30.82    54.396
     -29.53    54.035
     -28.24    50.613
     -26.95    42.943
     -25.66    34.325
     -24.38    28.171
     -23.09    25.138
     -21.80    23.555
     -20.51    23.349
     -19.22    24.116
     -17.93    27.016
     -16.65    32.058
     -15.36    41.102
     -14.07    53.476
     -12.78    64.285
     -11.49    63.955
     -10.20    62.075
      -8.92    65.102
      -7.63    68.873
      -6.34    73.972
      -5.05    81.361
      -3.76    85.092
      -2.48    83.631
      -1.19    78.437
       0.10    71.906
       1.39    64.718
       2.68    59.516
       3.97    55.659
       5.25    51.150
       6.54    40.144
       7.83    25.909
       9.12    15.048
      10.41     9.521
      11.70     6.355
      12.98     4.427
      14.27     3.183
      15.56     2.227
      16.85     1.646
      18.14     1.233
      19.42     0.875
      20.71     0.638
      22.00     0.553
      23.29     0.329
      24.58     0.198
      25.87     0.193
      27.15     0.171
      28.44     0.085
      29.73    -0.043
      31.02    -0.093
      32.31    -0.103
      33.60    -0.047
      34.88    -0.032
      36.17    -0.017
      37.46    -0.114
      38.75    -0.116
      40.04    -0.055
      41.32     0.032
      42.61     0.007
      43.90    -0.001
      45.19    -0.043
      46.48     0.087
      47.77     0.070
      49.05     0.057
      50.34    -0.067
      51.63     0.042
      52.92     0.087
      54.21     0.086
      55.50    -0.007
      56.78    -0.116
      58.07     0.004
      59.36    -0.017
      60.65     0.042
      61.94    -0.060
      63.22    -0.086
      64.51    -0.062
      65.80     0.010
      67.09     0.003
      68.38    -0.113
      69.67    -0.035
      70.95    -0.116
      72.24    -0.021
      73.53     0.067
      74.82    -0.010
      76.11    -0.128
      77.40    -0.028
      78.68     0.162
      79.97     0.096
      81.26     0.016
      82.55     0.027
      83.84     0.089
      85.12     0.005
      86.41     0.006
      87.70    -0.013
      88.99     0.052
      90.28    -0.092
      91.57    -0.025
      92.85     0.074
      94.14    -0.032
      95.43     0.013
      96.72     0.152
      98.01     0.198
      99.30     0.086
     100.58     0.043
     101.87     0.130
     103.16     0.012
     104.45     0.047
     105.74    -0.006
     107.02     0.010
     108.31     0.191
     109.60     0.023
     110.89    -0.062
     112.18    -0.113
     113.47     0.204
     114.75     0.149
     116.04     0.157
     117.33     0.046
     118.62    -0.045
     119.91    -0.002
     121.20    -0.016
     122.48    -0.015
     123.77    -0.025
     125.06     0.030
     126.35     0.068
     127.64     0.000
     128.92    -0.034
     130.21     0.041
     131.50    -0.053
     132.79     0.002
     134.08     0.006
     135.37    -0.037
     136.65    -0.128
     137.94     0.019
     139.23     0.079
     140.52     0.026
     141.81    -0.010
     143.09    -0.014
     144.38    -0.051
     145.67    -0.035
     146.96     0.026
     148.25    -0.032
     149.54     0.037
     150.82     0.104
     152.11    -0.018
     153.40    -0.118
     154.69    -0.065
     155.98    -0.013
     157.27    -0.062
     158.55    -0.041
     159.84    -0.060
     161.13     0.102
     162.42     0.051
     163.71     0.067
     164.99    -0.042
     166.28    -0.053
     167.57     0.032
     168.86     0.016
     170.15     0.049
     171.44     0.000
     172.72    -0.118
     174.01    -0.159
     175.30    -0.026
     176.59    -0.062
     177.88    -0.133
     179.17    -0.015
     180.45     0.033
     181.74     0.056
     183.03    -0.043
     184.32    -0.122
     185.61     0.041
     186.89    -0.127
     188.18    -0.089
     189.47     0.059
     190.76     0.046
     192.05     0.042
     193.34     0.072
     194.62     0.053
     195.91     0.015
     197.20     0.040
     198.49     0.037
     199.78     0.012
     201.07     0.049
     202.35    -0.045
     203.64    -0.062
     204.93    -0.040
     206.22    -0.050
     207.51    -0.122
     208.79    -0.028
     210.08    -0.010
     211.37    -0.030
     212.66     0.046
     213.95     0.109
     215.24     0.098
     216.52     0.160
     217.81    -0.063
     219.10    -0.112
     220.39     0.106
     221.68    -0.043
     222.97    -0.038
     224.25    -0.101
     225.54     0.002
     226.83     0.036
     228.12    -0.104
     229.41    -0.135
     230.69    -0.062
     231.98    -0.033
     233.27    -0.007
     234.56    -0.016
     235.85     0.025
     237.14    -0.127
     238.42    -0.069
     239.71     0.079
     241.00    -0.042
     242.29    -0.006
     243.58     0.085
     244.87    -0.062
     246.15     0.018
     247.44    -0.056
     248.73    -0.012
     250.02    -0.023
     251.31     0.002
     252.59     0.091
     253.88     0.033
     255.17     0.043
     256.46     0.054
     257.75    -0.066
     259.04     0.049
     260.32     0.084
     261.61    -0.028
     262.90    -0.020
     264.19    -0.020
     265.48     0.057
     266.77     0.005
     268.05     0.168
     269.34     0.091
     270.63    -0.050
     271.92    -0.052
     273.21    -0.034
     274.49     0.048
     275.78     0.101
     277.07     0.104
     278.36     0.243
     279.65     0.237
     280.94     0.003
     282.22    -0.010
     283.51     0.028
     284.80    -0.067
     286.09     0.009
     287.38     0.039
     288.67    -0.003
     289.95     0.004
     291.24     0.018
     292.53     0.021
     293.82    -0.010
     295.11    -0.025
     296.39    -0.116
     297.68    -0.136
     298.97    -0.059
     300.26    -0.004
     301.55    -0.072
     302.84    -0.017
     304.12    -0.087
     305.41    -0.134
     306.70     0.035
     307.99    -0.033
     309.28    -0.071
     310.57     0.069
     311.85     0.080
     313.14     0.064
     314.43     0.095
     315.72    -0.080
     317.01    -0.106
     318.29    -0.058
     319.58    -0.132
     320.87    -0.082
     322.16    -0.107
     323.45    -0.088
     324.74    -0.057
     326.02     0.039
     327.31    -0.007
     328.60     0.015
     329.89     0.061
     331.18    -0.027
     332.47     0.043
     333.75     0.066
     335.04     0.102
     336.33     0.021
     337.62    -0.041
     338.91     0.001
     340.19     0.083
     341.48     0.038
     342.77    -0.068
     344.06     0.081
     345.35     0.139
     346.64     0.167
     347.92     0.005
     349.21    -0.088
     350.50     0.057
     351.79    -0.007
     353.08     0.023
     354.37    -0.076
     355.65     0.054
     356.94     0.080
     358.23    -0.052
     359.52    -0.085
     360.81    -0.021
     362.09    -0.057
     363.38     0.000
     364.67     0.006
     365.96    -0.074
     367.25    -0.005
     368.54     0.010
     369.82     0.001
     371.11    -0.064
     372.40    -0.102
     373.69    -0.053
     374.98    -0.079
     376.27     0.079
     377.55    -0.048
     378.84    -0.175
     380.13    -0.077
     381.42    -0.032
     382.71     0.051
     383.99    -0.094
     385.28    -0.044
     386.57    -0.054
     387.86    -0.015
     389.15    -0.071
     390.44     0.061
     391.72     0.010
     393.01     0.014
     394.30    -0.090
     395.59    -0.139
     396.88    -0.022
     398.17    -0.058
     399.45    -0.075
%%GASS      0  datapoints: v_lsr [km/s] and T_B [K] for beam weighted average and median within 6 arcmin
%%LAB     777  datapoints: v_lsr [km/s] and T_B [K]
    -399.87     0.029
    -398.84     0.100
    -397.80    -0.052
    -396.77     0.080
    -395.74     0.073
    -394.71     0.117
    -393.68     0.051
    -392.65     0.094
    -391.62     0.001
    -390.59    -0.135
    -389.56     0.081
    -388.53     0.030
    -387.50     0.064
    -386.47     0.021
    -385.44     0.074
    -384.41    -0.044
    -383.38     0.080
    -382.35    -0.144
    -381.32     0.138
    -380.29    -0.031
    -379.25     0.025
    -378.22     0.031
    -377.19     0.096
    -376.16     0.022
    -375.13    -0.179
    -374.10    -0.156
    -373.07    -0.075
    -372.04    -0.027
    -371.01     0.120
    -369.98    -0.018
    -368.95     0.100
    -367.92     0.056
    -366.89    -0.136
    -365.86    -0.129
    -364.83    -0.019
    -363.80    -0.158
    -362.77    -0.082
    -361.73    -0.057
    -360.70    -0.024
    -359.67     0.015
    -358.64     0.018
    -357.61     0.064
    -356.58     0.073
    -355.55     0.044
    -354.52     0.015
    -353.49    -0.061
    -352.46    -0.073
    -351.43    -0.302
    -350.40     0.076
    -349.37     0.007
    -348.34    -0.028
    -347.31    -0.066
    -346.28     0.024
    -345.25     0.086
    -344.21    -0.057
    -343.18     0.128
    -342.15     0.075
    -341.12    -0.093
    -340.09     0.138
    -339.06    -0.032
    -338.03    -0.037
    -337.00     0.015
    -335.97    -0.117
    -334.94     0.054
    -333.91     0.035
    -332.88    -0.023
    -331.85     0.107
    -330.82     0.125
    -329.79    -0.056
    -328.76    -0.153
    -327.73     0.057
    -326.69     0.024
    -325.66    -0.022
    -324.63    -0.062
    -323.60     0.090
    -322.57     0.006
    -321.54     0.026
    -320.51     0.012
    -319.48    -0.022
    -318.45    -0.013
    -317.42     0.132
    -316.39    -0.056
    -315.36     0.071
    -314.33     0.132
    -313.30    -0.028
    -312.27    -0.072
    -311.24     0.037
    -310.21     0.010
    -309.17    -0.067
    -308.14    -0.109
    -307.11    -0.005
    -306.08    -0.092
    -305.05    -0.062
    -304.02     0.076
    -302.99     0.034
    -301.96    -0.067
    -300.93     0.073
    -299.90     0.001
    -298.87     0.065
    -297.84    -0.110
    -296.81     0.157
    -295.78     0.178
    -294.75     0.052
    -293.72     0.015
    -292.69     0.251
    -291.65    -0.038
    -290.62    -0.005
    -289.59    -0.034
    -288.56    -0.088
    -287.53     0.080
    -286.50     0.074
    -285.47    -0.085
    -284.44     0.182
    -283.41    -0.130
    -282.38     0.018
    -281.35     0.061
    -280.32    -0.059
    -279.29    -0.105
    -278.26     0.094
    -277.23    -0.194
    -276.20     0.031
    -275.17     0.027
    -274.14     0.109
    -273.10     0.021
    -272.07     0.108
    -271.04    -0.003
    -270.01     0.142
    -268.98    -0.029
    -267.95    -0.049
    -266.92    -0.121
    -265.89     0.070
    -264.86     0.100
    -263.83    -0.027
    -262.80     0.098
    -261.77     0.063
    -260.74    -0.013
    -259.71    -0.151
    -258.68    -0.126
    -257.65    -0.115
    -256.62    -0.033
    -255.58     0.017
    -254.55     0.088
    -253.52    -0.096
    -252.49    -0.061
    -251.46     0.129
    -250.43    -0.155
    -249.40     0.040
    -248.37     0.013
    -247.34     0.112
    -246.31     0.036
    -245.28    -0.015
    -244.25     0.016
    -243.22     0.065
    -242.19    -0.095
    -241.16    -0.014
    -240.13    -0.018
    -239.10     0.163
    -238.06     0.144
    -237.03    -0.041
    -236.00     0.148
    -234.97     0.070
    -233.94    -0.012
    -232.91    -0.047
    -231.88    -0.170
    -230.85    -0.070
    -229.82    -0.029
    -228.79    -0.147
    -227.76    -0.086
    -226.73     0.139
    -225.70    -0.136
    -224.67     0.100
    -223.64     0.118
    -222.61    -0.000
    -221.58     0.081
    -220.54    -0.151
    -219.51     0.036
    -218.48     0.039
    -217.45    -0.027
    -216.42     0.138
    -215.39    -0.052
    -214.36     0.040
    -213.33    -0.126
    -212.30     0.054
    -211.27    -0.002
    -210.24     0.029
    -209.21    -0.044
    -208.18     0.027
    -207.15     0.156
    -206.12     0.027
    -205.09     0.040
    -204.06    -0.066
    -203.02    -0.028
    -201.99    -0.032
    -200.96     0.070
    -199.93     0.096
    -198.90     0.054
    -197.87     0.098
    -196.84     0.074
    -195.81    -0.033
    -194.78     0.046
    -193.75    -0.156
    -192.72     0.010
    -191.69     0.036
    -190.66     0.015
    -189.63     0.003
    -188.60     0.001
    -187.57     0.025
    -186.54     0.047
    -185.50     0.079
    -184.47    -0.073
    -183.44     0.002
    -182.41    -0.023
    -181.38    -0.032
    -180.35    -0.012
    -179.32     0.013
    -178.29    -0.033
    -177.26    -0.037
    -176.23     0.051
    -175.20     0.046
    -174.17     0.025
    -173.14     0.006
    -172.11    -0.007
    -171.08    -0.090
    -170.05    -0.078
    -169.02    -0.081
    -167.98     0.073
    -166.95     0.105
    -165.92    -0.010
    -164.89     0.251
    -163.86     0.047
    -162.83     0.035
    -161.80     0.167
    -160.77     0.217
    -159.74     0.005
    -158.71     0.220
    -157.68     0.168
    -156.65     0.178
    -155.62     0.215
    -154.59     0.315
    -153.56     0.176
    -152.53     0.063
    -151.50     0.371
    -150.47     0.420
    -149.43     0.274
    -148.40     0.477
    -147.37     0.384
    -146.34     0.484
    -145.31     0.298
    -144.28     0.660
    -143.25     0.593
    -142.22     0.723
    -141.19     0.655
    -140.16     0.948
    -139.13     0.891
    -138.10     1.079
