%%            108.00000             1.00000    0             0.12700
% LAB  survey ------------------
% wanted position:  l, b, RA, DEC, and interpolated  NH
%108.00 ;   1.00 ; 341.63 ;  60.20 ;  0.744E+22
% nearest position: l, b, RA, DEC, and observed NH
%108.00 ;   1.00 ; 341.63 ;  60.20 ;  0.744E+22
% GASS III survey --------------
% NH - median within 6 arcmin radius   0.00    
% NH - mean within specified beam      0.00    
% EBHIS survey -----------------
% NH  within specified beam           0.800E+22
%%EBHIS   621  datapoints: v_lsr [km/s] and T_B [K]
    -399.25    -0.050
    -397.96     0.013
    -396.68     0.110
    -395.39    -0.042
    -394.10     0.093
    -392.81     0.019
    -391.52    -0.008
    -390.23    -0.098
    -388.95    -0.088
    -387.66     0.080
    -386.37    -0.032
    -385.08    -0.063
    -383.79     0.045
    -382.50     0.099
    -381.22    -0.092
    -379.93     0.030
    -378.64    -0.099
    -377.35    -0.106
    -376.06     0.016
    -374.78     0.125
    -373.49     0.066
    -372.20    -0.088
    -370.91    -0.039
    -369.62    -0.029
    -368.33    -0.047
    -367.05    -0.129
    -365.76    -0.050
    -364.47     0.086
    -363.18     0.187
    -361.89     0.017
    -360.60    -0.070
    -359.32    -0.022
    -358.03    -0.056
    -356.74    -0.100
    -355.45    -0.062
    -354.16     0.114
    -352.88     0.054
    -351.59    -0.127
    -350.30    -0.056
    -349.01    -0.043
    -347.72     0.034
    -346.43    -0.012
    -345.15    -0.062
    -343.86    -0.023
    -342.57     0.089
    -341.28    -0.037
    -339.99     0.014
    -338.70     0.058
    -337.42    -0.046
    -336.13    -0.097
    -334.84     0.006
    -333.55     0.117
    -332.26     0.054
    -330.98    -0.009
    -329.69    -0.020
    -328.40    -0.064
    -327.11     0.038
    -325.82     0.067
    -324.53     0.006
    -323.25     0.007
    -321.96     0.113
    -320.67    -0.029
    -319.38    -0.039
    -318.09     0.081
    -316.80     0.081
    -315.52     0.000
    -314.23     0.095
    -312.94     0.107
    -311.65    -0.070
    -310.36    -0.008
    -309.08     0.075
    -307.79     0.007
    -306.50    -0.073
    -305.21    -0.089
    -303.92    -0.067
    -302.63     0.009
    -301.35    -0.095
    -300.06    -0.108
    -298.77    -0.007
    -297.48     0.102
    -296.19     0.024
    -294.90    -0.023
    -293.62    -0.068
    -292.33     0.074
    -291.04    -0.181
    -289.75    -0.058
    -288.46    -0.021
    -287.18     0.026
    -285.89     0.092
    -284.60     0.015
    -283.31     0.100
    -282.02    -0.000
    -280.73    -0.019
    -279.45    -0.038
    -278.16    -0.024
    -276.87     0.126
    -275.58    -0.049
    -274.29     0.042
    -273.00    -0.078
    -271.72    -0.022
    -270.43     0.030
    -269.14    -0.005
    -267.85     0.031
    -266.56     0.036
    -265.28    -0.013
    -263.99     0.073
    -262.70    -0.004
    -261.41    -0.178
    -260.12    -0.153
    -258.83    -0.016
    -257.55    -0.049
    -256.26    -0.076
    -254.97    -0.033
    -253.68    -0.013
    -252.39    -0.016
    -251.10     0.123
    -249.82     0.046
    -248.53    -0.025
    -247.24     0.061
    -245.95     0.004
    -244.66     0.046
    -243.38    -0.034
    -242.09    -0.000
    -240.80    -0.079
    -239.51    -0.003
    -238.22    -0.036
    -236.93     0.148
    -235.65     0.239
    -234.36     0.071
    -233.07    -0.026
    -231.78    -0.052
    -230.49    -0.055
    -229.20     0.017
    -227.92    -0.048
    -226.63    -0.018
    -225.34    -0.137
    -224.05    -0.173
    -222.76    -0.125
    -221.48    -0.099
    -220.19     0.060
    -218.90     0.061
    -217.61     0.052
    -216.32     0.009
    -215.03    -0.104
    -213.75     0.011
    -212.46     0.050
    -211.17    -0.007
    -209.88     0.041
    -208.59     0.017
    -207.30    -0.078
    -206.02    -0.033
    -204.73    -0.038
    -203.44    -0.058
    -202.15    -0.099
    -200.86    -0.095
    -199.58     0.140
    -198.29     0.112
    -197.00    -0.049
    -195.71     0.081
    -194.42     0.027
    -193.13    -0.005
    -191.85     0.006
    -190.56    -0.059
    -189.27    -0.077
    -187.98     0.039
    -186.69     0.095
    -185.40     0.100
    -184.12    -0.099
    -182.83    -0.059
    -181.54    -0.007
    -180.25    -0.018
    -178.96     0.087
    -177.68     0.117
    -176.39    -0.009
    -175.10    -0.080
    -173.81     0.119
    -172.52     0.038
    -171.23     0.044
    -169.95     0.072
    -168.66     0.169
    -167.37     0.162
    -166.08     0.073
    -164.79     0.122
    -163.50    -0.027
    -162.22    -0.059
    -160.93     0.014
    -159.64     0.136
    -158.35     0.038
    -157.06     0.075
    -155.78     0.175
    -154.49     0.126
    -153.20     0.039
    -151.91     0.223
    -150.62     0.336
    -149.33     0.257
    -148.05     0.268
    -146.76     0.311
    -145.47     0.352
    -144.18     0.412
    -142.89     0.467
    -141.60     0.730
    -140.32     0.769
    -139.03     0.766
    -137.74     0.809
    -136.45     0.807
    -135.16     0.941
    -133.88     1.229
    -132.59     1.245
    -131.30     1.309
    -130.01     1.626
    -128.72     2.151
    -127.43     2.998
    -126.15     3.628
    -124.86     4.405
    -123.57     5.120
    -122.28     5.011
    -120.99     4.473
    -119.70     3.843
    -118.42     3.351
    -117.13     3.025
    -115.84     3.180
    -114.55     3.331
    -113.26     3.453
    -111.98     3.988
    -110.69     4.414
    -109.40     4.804
    -108.11     5.528
    -106.82     6.538
    -105.53     7.732
    -104.25     8.931
    -102.96    11.085
    -101.67    14.175
    -100.38    18.930
     -99.09    24.232
     -97.80    27.738
     -96.52    28.977
     -95.23    29.010
     -93.94    25.047
     -92.65    18.742
     -91.36    12.926
     -90.08     9.168
     -88.79     6.609
     -87.50     5.112
     -86.21     4.125
     -84.92     3.941
     -83.63     4.141
     -82.35     4.444
     -81.06     5.229
     -79.77     6.065
     -78.48     6.561
     -77.19     7.472
     -75.90     8.332
     -74.62     9.548
     -73.33    11.332
     -72.04    13.433
     -70.75    19.507
     -69.46    28.349
     -68.18    31.465
     -66.89    34.101
     -65.60    33.694
     -64.31    39.830
     -63.02    44.151
     -61.73    49.157
     -60.45    56.479
     -59.16    65.367
     -57.87    75.878
     -56.58    84.427
     -55.29    88.137
     -54.00    89.269
     -52.72    86.152
     -51.43    81.315
     -50.14    78.119
     -48.85    76.813
     -47.56    76.950
     -46.28    76.635
     -44.99    74.551
     -43.70    67.847
     -42.41    55.367
     -41.12    43.295
     -39.83    34.335
     -38.55    27.644
     -37.26    22.933
     -35.97    18.087
     -34.68    14.956
     -33.39    14.143
     -32.10    15.510
     -30.82    18.785
     -29.53    22.806
     -28.24    27.211
     -26.95    28.889
     -25.66    26.330
     -24.38    21.874
     -23.09    18.110
     -21.80    15.622
     -20.51    14.619
     -19.22    14.880
     -17.93    16.190
     -16.65    19.072
     -15.36    22.998
     -14.07    31.026
     -12.78    43.529
     -11.49    56.990
     -10.20    68.910
      -8.92    77.842
      -7.63    81.246
      -6.34    80.944
      -5.05    81.542
      -3.76    81.729
      -2.48    79.742
      -1.19    77.367
       0.10    74.008
       1.39    66.458
       2.68    53.926
       3.97    41.195
       5.25    32.435
       6.54    26.149
       7.83    19.188
       9.12    11.744
      10.41     7.432
      11.70     5.265
      12.98     3.753
      14.27     2.628
      15.56     1.894
      16.85     1.448
      18.14     1.017
      19.42     0.720
      20.71     0.706
      22.00     0.492
      23.29     0.256
      24.58     0.175
      25.87     0.239
      27.15     0.068
      28.44     0.111
      29.73    -0.054
      31.02    -0.015
      32.31    -0.004
      33.60    -0.025
      34.88    -0.057
      36.17    -0.037
      37.46     0.028
      38.75     0.087
      40.04    -0.018
      41.32     0.112
      42.61     0.074
      43.90     0.071
      45.19    -0.060
      46.48    -0.049
      47.77     0.034
      49.05    -0.081
      50.34     0.000
      51.63    -0.134
      52.92     0.015
      54.21    -0.081
      55.50    -0.049
      56.78     0.059
      58.07    -0.063
      59.36     0.078
      60.65     0.056
      61.94     0.027
      63.22    -0.128
      64.51     0.002
      65.80    -0.027
      67.09     0.052
      68.38    -0.093
      69.67    -0.092
      70.95    -0.075
      72.24     0.059
      73.53     0.133
      74.82    -0.035
      76.11    -0.088
      77.40    -0.005
      78.68     0.056
      79.97     0.106
      81.26    -0.049
      82.55     0.018
      83.84     0.109
      85.12     0.015
      86.41    -0.044
      87.70    -0.015
      88.99    -0.050
      90.28     0.118
      91.57    -0.124
      92.85     0.035
      94.14    -0.032
      95.43    -0.033
      96.72    -0.052
      98.01    -0.070
      99.30     0.132
     100.58     0.020
     101.87     0.024
     103.16     0.284
     104.45     0.047
     105.74     0.050
     107.02    -0.032
     108.31     0.194
     109.60     0.120
     110.89     0.097
     112.18    -0.107
     113.47    -0.057
     114.75     0.040
     116.04     0.131
     117.33     0.105
     118.62     0.101
     119.91     0.081
     121.20     0.031
     122.48    -0.010
     123.77     0.002
     125.06    -0.070
     126.35     0.082
     127.64     0.042
     128.92     0.023
     130.21    -0.062
     131.50    -0.044
     132.79    -0.034
     134.08     0.028
     135.37     0.030
     136.65    -0.015
     137.94    -0.060
     139.23     0.024
     140.52     0.072
     141.81     0.007
     143.09     0.030
     144.38    -0.088
     145.67    -0.096
     146.96     0.082
     148.25     0.147
     149.54    -0.049
     150.82     0.058
     152.11     0.102
     153.40    -0.015
     154.69    -0.151
     155.98    -0.051
     157.27    -0.093
     158.55    -0.069
     159.84     0.000
     161.13    -0.059
     162.42     0.096
     163.71    -0.064
     164.99     0.014
     166.28     0.024
     167.57     0.044
     168.86     0.056
     170.15    -0.111
     171.44    -0.033
     172.72    -0.050
     174.01    -0.037
     175.30     0.020
     176.59     0.050
     177.88     0.030
     179.17    -0.051
     180.45     0.019
     181.74    -0.060
     183.03     0.064
     184.32    -0.074
     185.61    -0.001
     186.89     0.095
     188.18     0.056
     189.47     0.002
     190.76     0.027
     192.05     0.049
     193.34     0.026
     194.62    -0.080
     195.91    -0.101
     197.20    -0.017
     198.49    -0.016
     199.78    -0.014
     201.07     0.024
     202.35     0.027
     203.64    -0.025
     204.93     0.061
     206.22     0.098
     207.51    -0.001
     208.79     0.147
     210.08    -0.071
     211.37     0.012
     212.66     0.013
     213.95    -0.096
     215.24    -0.125
     216.52     0.017
     217.81    -0.070
     219.10    -0.033
     220.39    -0.040
     221.68     0.083
     222.97     0.017
     224.25    -0.073
     225.54    -0.021
     226.83     0.012
     228.12    -0.072
     229.41    -0.016
     230.69    -0.022
     231.98     0.092
     233.27    -0.001
     234.56    -0.022
     235.85    -0.097
     237.14    -0.053
     238.42     0.056
     239.71     0.004
     241.00    -0.052
     242.29     0.006
     243.58     0.138
     244.87    -0.035
     246.15    -0.093
     247.44     0.001
     248.73     0.060
     250.02    -0.003
     251.31     0.135
     252.59     0.121
     253.88     0.030
     255.17    -0.066
     256.46    -0.054
     257.75     0.087
     259.04     0.127
     260.32     0.063
     261.61    -0.065
     262.90     0.031
     264.19     0.009
     265.48     0.035
     266.77     0.104
     268.05    -0.014
     269.34    -0.049
     270.63    -0.141
     271.92    -0.089
     273.21     0.017
     274.49     0.079
     275.78     0.138
     277.07    -0.055
     278.36    -0.038
     279.65    -0.136
     280.94    -0.157
     282.22    -0.082
     283.51    -0.022
     284.80     0.072
     286.09    -0.095
     287.38    -0.056
     288.67    -0.074
     289.95     0.040
     291.24     0.013
     292.53     0.107
     293.82    -0.064
     295.11    -0.100
     296.39    -0.113
     297.68     0.121
     298.97     0.026
     300.26     0.003
     301.55     0.004
     302.84    -0.020
     304.12     0.108
     305.41     0.055
     306.70     0.044
     307.99     0.029
     309.28     0.076
     310.57    -0.106
     311.85    -0.090
     313.14    -0.060
     314.43    -0.074
     315.72     0.063
     317.01     0.232
     318.29     0.151
     319.58     0.002
     320.87     0.005
     322.16     0.063
     323.45     0.120
     324.74     0.141
     326.02     0.070
     327.31    -0.062
     328.60    -0.011
     329.89     0.053
     331.18     0.003
     332.47     0.005
     333.75    -0.090
     335.04    -0.036
     336.33    -0.052
     337.62    -0.011
     338.91     0.035
     340.19    -0.046
     341.48     0.022
     342.77     0.070
     344.06     0.099
     345.35     0.040
     346.64     0.067
     347.92     0.033
     349.21     0.085
     350.50     0.026
     351.79    -0.049
     353.08     0.030
     354.37    -0.005
     355.65    -0.117
     356.94    -0.112
     358.23    -0.067
     359.52    -0.040
     360.81    -0.008
     362.09    -0.001
     363.38    -0.229
     364.67    -0.027
     365.96    -0.091
     367.25     0.014
     368.54     0.025
     369.82     0.090
     371.11     0.000
     372.40    -0.083
     373.69    -0.019
     374.98    -0.118
     376.27     0.086
     377.55    -0.038
     378.84    -0.105
     380.13    -0.011
     381.42     0.101
     382.71     0.167
     383.99     0.156
     385.28     0.066
     386.57    -0.059
     387.86     0.070
     389.15     0.015
     390.44     0.018
     391.72    -0.185
     393.01    -0.119
     394.30    -0.007
     395.59     0.031
     396.88    -0.008
     398.17    -0.028
     399.45     0.078
%%GASS      0  datapoints: v_lsr [km/s] and T_B [K] for beam weighted average and median within 6 arcmin
%%LAB     777  datapoints: v_lsr [km/s] and T_B [K]
    -399.83     0.173
    -398.80     0.026
    -397.77     0.049
    -396.74    -0.033
    -395.71     0.039
    -394.68     0.036
    -393.65     0.114
    -392.62     0.065
    -391.59    -0.075
    -390.56     0.037
    -389.53     0.004
    -388.50    -0.048
    -387.47     0.047
    -386.44     0.049
    -385.41    -0.079
    -384.38    -0.098
    -383.35     0.025
    -382.32     0.060
    -381.29     0.155
    -380.26    -0.078
    -379.22    -0.045
    -378.19     0.037
    -377.16    -0.049
    -376.13     0.034
    -375.10    -0.105
    -374.07     0.047
    -373.04     0.040
    -372.01    -0.070
    -370.98     0.178
    -369.95    -0.014
    -368.92    -0.021
    -367.89     0.045
    -366.86     0.138
    -365.83     0.090
    -364.80    -0.088
    -363.77    -0.116
    -362.74     0.036
    -361.71     0.108
    -360.68    -0.038
    -359.65    -0.051
    -358.61     0.004
    -357.58    -0.092
    -356.55    -0.103
    -355.52    -0.015
    -354.49    -0.169
    -353.46     0.146
    -352.43     0.088
    -351.40    -0.127
    -350.37    -0.121
    -349.34    -0.006
    -348.31    -0.088
    -347.28     0.032
    -346.25     0.094
    -345.22    -0.041
    -344.19    -0.005
    -343.16    -0.077
    -342.13     0.003
    -341.10     0.091
    -340.07     0.183
    -339.04    -0.058
    -338.00     0.041
    -336.97    -0.066
    -335.94    -0.008
    -334.91     0.009
    -333.88    -0.025
    -332.85    -0.056
    -331.82     0.023
    -330.79     0.009
    -329.76     0.104
    -328.73     0.082
    -327.70     0.043
    -326.67     0.011
    -325.64    -0.070
    -324.61     0.019
    -323.58     0.071
    -322.55    -0.003
    -321.52    -0.037
    -320.49     0.047
    -319.46    -0.167
    -318.43     0.006
    -317.39    -0.148
    -316.36     0.020
    -315.33    -0.066
    -314.30    -0.132
    -313.27    -0.067
    -312.24    -0.006
    -311.21     0.130
    -310.18    -0.015
    -309.15    -0.123
    -308.12    -0.034
    -307.09     0.070
    -306.06    -0.016
    -305.03    -0.032
    -304.00    -0.084
    -302.97    -0.090
    -301.94    -0.082
    -300.91    -0.188
    -299.88    -0.099
    -298.85     0.023
    -297.82    -0.000
    -296.78    -0.103
    -295.75    -0.033
    -294.72    -0.008
    -293.69     0.118
    -292.66    -0.095
    -291.63    -0.039
    -290.60    -0.015
    -289.57    -0.024
    -288.54     0.156
    -287.51     0.025
    -286.48    -0.045
    -285.45    -0.122
    -284.42    -0.033
    -283.39    -0.128
    -282.36     0.156
    -281.33     0.071
    -280.30    -0.027
    -279.27     0.003
    -278.24    -0.020
    -277.21     0.118
    -276.17     0.215
    -275.14     0.070
    -274.11     0.008
    -273.08     0.074
    -272.05     0.125
    -271.02    -0.093
    -269.99     0.131
    -268.96     0.066
    -267.93     0.057
    -266.90     0.138
    -265.87    -0.009
    -264.84     0.188
    -263.81     0.101
    -262.78     0.109
    -261.75     0.142
    -260.72     0.152
    -259.69     0.121
    -258.66    -0.150
    -257.63     0.099
    -256.60    -0.033
    -255.56     0.080
    -254.53    -0.077
    -253.50     0.037
    -252.47    -0.010
    -251.44     0.147
    -250.41     0.180
    -249.38     0.031
    -248.35    -0.077
    -247.32     0.066
    -246.29     0.070
    -245.26     0.015
    -244.23     0.070
    -243.20     0.045
    -242.17    -0.027
    -241.14     0.043
    -240.11     0.025
    -239.08     0.037
    -238.05     0.155
    -237.02    -0.087
    -235.98     0.043
    -234.95     0.041
    -233.92    -0.110
    -232.89     0.026
    -231.86     0.009
    -230.83     0.003
    -229.80    -0.066
    -228.77     0.126
    -227.74    -0.003
    -226.71    -0.043
    -225.68    -0.061
    -224.65     0.030
    -223.62    -0.144
    -222.59     0.165
    -221.56    -0.064
    -220.53     0.141
    -219.50    -0.042
    -218.47    -0.100
    -217.44    -0.051
    -216.41     0.018
    -215.37    -0.078
    -214.34    -0.021
    -213.31     0.141
    -212.28     0.217
    -211.25    -0.045
    -210.22     0.103
    -209.19    -0.031
    -208.16     0.045
    -207.13    -0.028
    -206.10    -0.002
    -205.07    -0.030
    -204.04     0.020
    -203.01    -0.078
    -201.98     0.007
    -200.95    -0.120
    -199.92    -0.131
    -198.89    -0.202
    -197.86     0.029
    -196.83     0.071
    -195.80     0.064
    -194.76     0.051
    -193.73     0.087
    -192.70     0.062
    -191.67    -0.005
    -190.64     0.029
    -189.61     0.058
    -188.58    -0.072
    -187.55    -0.178
    -186.52     0.029
    -185.49     0.088
    -184.46    -0.059
    -183.43     0.019
    -182.40    -0.056
    -181.37    -0.124
    -180.34    -0.005
    -179.31     0.065
    -178.28    -0.006
    -177.25    -0.112
    -176.22    -0.044
    -175.19    -0.031
    -174.15     0.115
    -173.12     0.060
    -172.09     0.060
    -171.06    -0.009
    -170.03     0.113
    -169.00    -0.070
    -167.97    -0.065
    -166.94     0.059
    -165.91     0.059
    -164.88     0.102
    -163.85     0.101
    -162.82    -0.087
    -161.79    -0.047
    -160.76     0.092
    -159.73     0.053
    -158.70     0.204
    -157.67     0.012
    -156.64     0.163
    -155.61     0.104
    -154.58     0.159
    -153.54     0.118
    -152.51     0.118
    -151.48     0.060
    -150.45     0.294
    -149.42     0.181
    -148.39     0.342
    -147.36     0.375
    -146.33     0.481
    -145.30     0.408
    -144.27     0.504
    -143.24     0.656
    -142.21     0.491
    -141.18     0.756
    -140.15     0.830
    -139.12     0.696
    -138.09     0.801
