%%            108.00000             4.00000    0             0.12700
% LAB  survey ------------------
% wanted position:  l, b, RA, DEC, and interpolated  NH
%108.00 ;   4.00 ; 338.60 ;  62.83 ;  0.717E+22
% nearest position: l, b, RA, DEC, and observed NH
%108.00 ;   4.00 ; 338.60 ;  62.83 ;  0.717E+22
% GASS III survey --------------
% NH - median within 6 arcmin radius   0.00    
% NH - mean within specified beam      0.00    
% EBHIS survey -----------------
% NH  within specified beam           0.710E+22
%%EBHIS   621  datapoints: v_lsr [km/s] and T_B [K]
    -399.25    -0.058
    -397.96    -0.011
    -396.68    -0.071
    -395.39     0.064
    -394.10    -0.012
    -392.81     0.044
    -391.52     0.034
    -390.23     0.058
    -388.95     0.007
    -387.66    -0.008
    -386.37    -0.009
    -385.08     0.060
    -383.79     0.016
    -382.50    -0.035
    -381.22    -0.077
    -379.93    -0.078
    -378.64     0.075
    -377.35     0.127
    -376.06     0.068
    -374.78    -0.020
    -373.49     0.048
    -372.20     0.025
    -370.91     0.008
    -369.62    -0.018
    -368.33    -0.014
    -367.05     0.102
    -365.76    -0.024
    -364.47    -0.075
    -363.18    -0.016
    -361.89    -0.041
    -360.60    -0.068
    -359.32     0.011
    -358.03     0.013
    -356.74    -0.047
    -355.45     0.034
    -354.16    -0.042
    -352.88    -0.068
    -351.59     0.018
    -350.30     0.025
    -349.01     0.061
    -347.72    -0.043
    -346.43    -0.010
    -345.15    -0.014
    -343.86    -0.034
    -342.57     0.077
    -341.28     0.073
    -339.99    -0.061
    -338.70    -0.125
    -337.42    -0.021
    -336.13    -0.051
    -334.84     0.043
    -333.55    -0.015
    -332.26    -0.080
    -330.98     0.011
    -329.69    -0.045
    -328.40     0.086
    -327.11     0.053
    -325.82     0.105
    -324.53    -0.060
    -323.25    -0.029
    -321.96     0.020
    -320.67     0.066
    -319.38     0.021
    -318.09    -0.019
    -316.80     0.063
    -315.52     0.047
    -314.23     0.053
    -312.94    -0.055
    -311.65     0.016
    -310.36    -0.050
    -309.08     0.014
    -307.79    -0.038
    -306.50     0.026
    -305.21     0.062
    -303.92     0.158
    -302.63     0.050
    -301.35     0.051
    -300.06     0.068
    -298.77    -0.055
    -297.48     0.003
    -296.19    -0.044
    -294.90    -0.008
    -293.62    -0.025
    -292.33    -0.042
    -291.04    -0.039
    -289.75     0.026
    -288.46     0.000
    -287.18     0.003
    -285.89    -0.017
    -284.60    -0.042
    -283.31     0.003
    -282.02     0.051
    -280.73     0.014
    -279.45     0.052
    -278.16    -0.017
    -276.87     0.019
    -275.58     0.002
    -274.29    -0.070
    -273.00    -0.026
    -271.72    -0.048
    -270.43    -0.017
    -269.14     0.042
    -267.85     0.044
    -266.56    -0.026
    -265.28     0.044
    -263.99     0.078
    -262.70     0.013
    -261.41     0.042
    -260.12    -0.013
    -258.83     0.054
    -257.55     0.117
    -256.26     0.105
    -254.97     0.024
    -253.68    -0.076
    -252.39     0.016
    -251.10    -0.008
    -249.82    -0.099
    -248.53     0.093
    -247.24     0.129
    -245.95    -0.067
    -244.66     0.049
    -243.38    -0.024
    -242.09    -0.025
    -240.80     0.038
    -239.51    -0.012
    -238.22    -0.063
    -236.93    -0.070
    -235.65    -0.033
    -234.36    -0.022
    -233.07    -0.030
    -231.78    -0.035
    -230.49    -0.038
    -229.20    -0.031
    -227.92     0.009
    -226.63     0.059
    -225.34     0.075
    -224.05    -0.047
    -222.76     0.014
    -221.48     0.074
    -220.19    -0.050
    -218.90     0.102
    -217.61     0.014
    -216.32    -0.078
    -215.03     0.008
    -213.75     0.014
    -212.46    -0.029
    -211.17    -0.027
    -209.88    -0.001
    -208.59     0.010
    -207.30    -0.125
    -206.02     0.015
    -204.73    -0.021
    -203.44    -0.015
    -202.15    -0.079
    -200.86    -0.116
    -199.58    -0.001
    -198.29     0.017
    -197.00     0.055
    -195.71     0.037
    -194.42     0.019
    -193.13     0.045
    -191.85     0.187
    -190.56     0.153
    -189.27    -0.065
    -187.98     0.002
    -186.69    -0.017
    -185.40     0.055
    -184.12    -0.016
    -182.83     0.007
    -181.54     0.035
    -180.25    -0.040
    -178.96    -0.037
    -177.68     0.046
    -176.39     0.045
    -175.10     0.034
    -173.81     0.009
    -172.52     0.044
    -171.23     0.066
    -169.95     0.091
    -168.66     0.036
    -167.37    -0.025
    -166.08     0.019
    -164.79    -0.010
    -163.50    -0.000
    -162.22     0.033
    -160.93    -0.012
    -159.64     0.107
    -158.35     0.109
    -157.06     0.138
    -155.78     0.203
    -154.49     0.270
    -153.20     0.124
    -151.91     0.096
    -150.62     0.243
    -149.33     0.282
    -148.05     0.409
    -146.76     0.528
    -145.47     0.666
    -144.18     0.830
    -142.89     0.941
    -141.60     0.996
    -140.32     0.953
    -139.03     0.981
    -137.74     0.834
    -136.45     0.933
    -135.16     1.044
    -133.88     1.137
    -132.59     1.239
    -131.30     1.365
    -130.01     1.528
    -128.72     1.943
    -127.43     2.436
    -126.15     2.174
    -124.86     2.247
    -123.57     2.726
    -122.28     3.013
    -120.99     3.233
    -119.70     3.413
    -118.42     3.831
    -117.13     4.285
    -115.84     4.790
    -114.55     5.634
    -113.26     6.710
    -111.98     8.134
    -110.69    10.143
    -109.40    12.209
    -108.11    13.134
    -106.82    12.626
    -105.53    11.520
    -104.25    10.491
    -102.96    10.006
    -101.67    10.374
    -100.38    11.675
     -99.09    12.796
     -97.80    12.291
     -96.52    10.574
     -95.23     9.133
     -93.94     8.967
     -92.65    10.892
     -91.36    14.017
     -90.08    16.626
     -88.79    17.409
     -87.50    15.966
     -86.21    14.855
     -84.92    17.239
     -83.63    22.637
     -82.35    27.606
     -81.06    30.578
     -79.77    32.172
     -78.48    34.926
     -77.19    41.528
     -75.90    50.239
     -74.62    58.015
     -73.33    62.380
     -72.04    63.955
     -70.75    59.583
     -69.46    54.319
     -68.18    53.621
     -66.89    56.968
     -65.60    60.060
     -64.31    56.979
     -63.02    47.640
     -61.73    36.461
     -60.45    27.526
     -59.16    22.354
     -57.87    19.732
     -56.58    18.542
     -55.29    17.797
     -54.00    17.644
     -52.72    17.095
     -51.43    17.131
     -50.14    17.505
     -48.85    18.562
     -47.56    18.468
     -46.28    16.010
     -44.99    13.498
     -43.70    12.583
     -42.41    12.814
     -41.12    14.379
     -39.83    17.331
     -38.55    21.425
     -37.26    25.270
     -35.97    26.452
     -34.68    24.422
     -33.39    22.140
     -32.10    20.908
     -30.82    20.898
     -29.53    21.759
     -28.24    23.785
     -26.95    25.496
     -25.66    26.142
     -24.38    25.439
     -23.09    23.917
     -21.80    20.330
     -20.51    15.673
     -19.22    12.749
     -17.93    12.637
     -16.65    14.753
     -15.36    19.776
     -14.07    28.569
     -12.78    41.378
     -11.49    55.923
     -10.20    65.592
      -8.92    64.972
      -7.63    66.571
      -6.34    72.552
      -5.05    75.604
      -3.76    79.000
      -2.48    80.232
      -1.19    75.354
       0.10    68.657
       1.39    62.348
       2.68    57.049
       3.97    53.992
       5.25    52.011
       6.54    46.209
       7.83    32.427
       9.12    18.500
      10.41    11.220
      11.70     7.753
      12.98     5.757
      14.27     4.450
      15.56     3.314
      16.85     2.457
      18.14     1.745
      19.42     1.231
      20.71     1.027
      22.00     0.691
      23.29     0.411
      24.58     0.314
      25.87     0.211
      27.15     0.157
      28.44     0.093
      29.73     0.051
      31.02     0.087
      32.31    -0.057
      33.60     0.054
      34.88     0.022
      36.17     0.022
      37.46     0.017
      38.75     0.048
      40.04     0.131
      41.32    -0.054
      42.61     0.061
      43.90     0.041
      45.19     0.019
      46.48     0.032
      47.77     0.046
      49.05     0.038
      50.34    -0.021
      51.63     0.014
      52.92    -0.017
      54.21    -0.143
      55.50     0.000
      56.78     0.120
      58.07     0.028
      59.36    -0.003
      60.65     0.037
      61.94     0.026
      63.22    -0.076
      64.51    -0.025
      65.80    -0.035
      67.09    -0.096
      68.38    -0.161
      69.67    -0.048
      70.95    -0.011
      72.24    -0.029
      73.53    -0.093
      74.82     0.014
      76.11     0.039
      77.40     0.023
      78.68     0.070
      79.97     0.032
      81.26    -0.038
      82.55     0.004
      83.84     0.009
      85.12     0.049
      86.41     0.006
      87.70     0.013
      88.99    -0.042
      90.28    -0.045
      91.57     0.023
      92.85     0.016
      94.14    -0.029
      95.43    -0.010
      96.72     0.066
      98.01     0.007
      99.30    -0.022
     100.58    -0.066
     101.87    -0.106
     103.16    -0.034
     104.45    -0.029
     105.74    -0.059
     107.02    -0.085
     108.31    -0.048
     109.60     0.021
     110.89     0.070
     112.18     0.025
     113.47    -0.068
     114.75     0.069
     116.04     0.045
     117.33     0.025
     118.62    -0.041
     119.91     0.057
     121.20    -0.007
     122.48    -0.100
     123.77    -0.122
     125.06     0.049
     126.35    -0.034
     127.64     0.085
     128.92     0.089
     130.21    -0.017
     131.50    -0.023
     132.79     0.029
     134.08    -0.024
     135.37    -0.005
     136.65     0.035
     137.94     0.014
     139.23     0.040
     140.52     0.010
     141.81     0.027
     143.09    -0.059
     144.38    -0.074
     145.67     0.051
     146.96     0.036
     148.25     0.070
     149.54    -0.117
     150.82    -0.066
     152.11     0.096
     153.40     0.060
     154.69     0.010
     155.98    -0.077
     157.27    -0.044
     158.55     0.011
     159.84    -0.012
     161.13    -0.022
     162.42    -0.079
     163.71     0.034
     164.99     0.029
     166.28    -0.091
     167.57    -0.001
     168.86    -0.044
     170.15     0.041
     171.44     0.003
     172.72     0.037
     174.01     0.076
     175.30     0.054
     176.59     0.052
     177.88    -0.033
     179.17    -0.003
     180.45    -0.087
     181.74     0.025
     183.03     0.014
     184.32    -0.016
     185.61    -0.117
     186.89    -0.052
     188.18    -0.026
     189.47    -0.045
     190.76    -0.034
     192.05     0.034
     193.34     0.015
     194.62     0.065
     195.91    -0.026
     197.20     0.020
     198.49    -0.052
     199.78     0.012
     201.07    -0.045
     202.35    -0.042
     203.64    -0.081
     204.93     0.081
     206.22    -0.003
     207.51     0.076
     208.79     0.021
     210.08     0.005
     211.37    -0.008
     212.66    -0.058
     213.95    -0.026
     215.24    -0.072
     216.52     0.093
     217.81     0.074
     219.10    -0.046
     220.39    -0.029
     221.68    -0.085
     222.97    -0.116
     224.25    -0.044
     225.54    -0.000
     226.83     0.045
     228.12     0.048
     229.41     0.016
     230.69     0.058
     231.98     0.036
     233.27    -0.048
     234.56     0.053
     235.85     0.042
     237.14    -0.016
     238.42    -0.023
     239.71     0.040
     241.00    -0.058
     242.29     0.094
     243.58     0.079
     244.87     0.094
     246.15     0.012
     247.44    -0.061
     248.73    -0.029
     250.02     0.105
     251.31     0.007
     252.59    -0.038
     253.88    -0.023
     255.17     0.020
     256.46    -0.025
     257.75    -0.089
     259.04     0.052
     260.32     0.086
     261.61    -0.067
     262.90    -0.013
     264.19     0.081
     265.48     0.095
     266.77     0.050
     268.05     0.016
     269.34     0.069
     270.63     0.057
     271.92     0.060
     273.21     0.037
     274.49     0.134
     275.78     0.063
     277.07    -0.053
     278.36    -0.014
     279.65    -0.050
     280.94    -0.004
     282.22    -0.052
     283.51    -0.110
     284.80     0.071
     286.09     0.022
     287.38     0.023
     288.67     0.058
     289.95    -0.008
     291.24    -0.005
     292.53     0.062
     293.82     0.045
     295.11     0.095
     296.39     0.078
     297.68     0.013
     298.97     0.054
     300.26     0.026
     301.55    -0.028
     302.84    -0.014
     304.12    -0.011
     305.41    -0.082
     306.70    -0.049
     307.99    -0.041
     309.28    -0.057
     310.57    -0.008
     311.85    -0.080
     313.14    -0.124
     314.43    -0.062
     315.72     0.001
     317.01     0.010
     318.29     0.046
     319.58    -0.023
     320.87    -0.023
     322.16    -0.018
     323.45    -0.042
     324.74     0.046
     326.02     0.009
     327.31     0.110
     328.60     0.033
     329.89     0.022
     331.18     0.005
     332.47    -0.014
     333.75     0.016
     335.04    -0.001
     336.33    -0.111
     337.62    -0.120
     338.91     0.047
     340.19     0.052
     341.48     0.007
     342.77    -0.038
     344.06    -0.048
     345.35     0.020
     346.64     0.002
     347.92    -0.043
     349.21     0.051
     350.50    -0.001
     351.79     0.043
     353.08    -0.013
     354.37    -0.054
     355.65     0.013
     356.94     0.079
     358.23    -0.093
     359.52    -0.078
     360.81     0.003
     362.09     0.026
     363.38    -0.055
     364.67    -0.054
     365.96     0.012
     367.25     0.025
     368.54     0.039
     369.82    -0.048
     371.11    -0.003
     372.40     0.020
     373.69     0.016
     374.98     0.083
     376.27    -0.014
     377.55    -0.019
     378.84     0.120
     380.13    -0.049
     381.42    -0.089
     382.71    -0.086
     383.99     0.067
     385.28    -0.018
     386.57    -0.087
     387.86     0.022
     389.15     0.131
     390.44     0.027
     391.72     0.004
     393.01    -0.085
     394.30    -0.047
     395.59     0.007
     396.88    -0.014
     398.17    -0.053
     399.45    -0.032
%%GASS      0  datapoints: v_lsr [km/s] and T_B [K] for beam weighted average and median within 6 arcmin
%%LAB     777  datapoints: v_lsr [km/s] and T_B [K]
    -399.86     0.011
    -398.83     0.066
    -397.80    -0.024
    -396.77    -0.227
    -395.74     0.037
    -394.71     0.123
    -393.68    -0.005
    -392.65     0.059
    -391.62     0.069
    -390.59    -0.147
    -389.56     0.041
    -388.53     0.034
    -387.50    -0.037
    -386.47     0.030
    -385.44     0.086
    -384.41    -0.072
    -383.38     0.066
    -382.34     0.076
    -381.31    -0.002
    -380.28     0.097
    -379.25     0.061
    -378.22    -0.024
    -377.19    -0.027
    -376.16    -0.023
    -375.13     0.060
    -374.10    -0.057
    -373.07     0.054
    -372.04     0.011
    -371.01    -0.016
    -369.98    -0.038
    -368.95    -0.122
    -367.92     0.044
    -366.89     0.004
    -365.86    -0.137
    -364.82    -0.038
    -363.79    -0.057
    -362.76     0.035
    -361.73     0.118
    -360.70    -0.043
    -359.67    -0.015
    -358.64     0.001
    -357.61    -0.152
    -356.58     0.082
    -355.55     0.114
    -354.52     0.090
    -353.49    -0.070
    -352.46    -0.004
    -351.43     0.044
    -350.40    -0.120
    -349.37    -0.101
    -348.34    -0.026
    -347.30    -0.002
    -346.27    -0.152
    -345.24    -0.007
    -344.21     0.112
    -343.18    -0.161
    -342.15     0.096
    -341.12     0.039
    -340.09     0.062
    -339.06    -0.031
    -338.03     0.030
    -337.00     0.133
    -335.97    -0.031
    -334.94    -0.139
    -333.91    -0.002
    -332.88    -0.035
    -331.85     0.020
    -330.82    -0.030
    -329.79     0.039
    -328.75    -0.104
    -327.72    -0.052
    -326.69     0.065
    -325.66     0.026
    -324.63    -0.041
    -323.60     0.031
    -322.57     0.039
    -321.54    -0.008
    -320.51     0.096
    -319.48    -0.080
    -318.45     0.004
    -317.42     0.036
    -316.39    -0.045
    -315.36     0.060
    -314.33     0.036
    -313.30     0.041
    -312.27     0.066
    -311.23    -0.019
    -310.20     0.126
    -309.17     0.111
    -308.14    -0.052
    -307.11     0.055
    -306.08    -0.218
    -305.05     0.010
    -304.02    -0.003
    -302.99    -0.099
    -301.96    -0.026
    -300.93     0.055
    -299.90    -0.085
    -298.87     0.126
    -297.84    -0.130
    -296.81     0.173
    -295.78     0.223
    -294.75    -0.063
    -293.71     0.024
    -292.68     0.096
    -291.65    -0.020
    -290.62     0.149
    -289.59     0.001
    -288.56     0.079
    -287.53    -0.049
    -286.50     0.237
    -285.47     0.020
    -284.44    -0.019
    -283.41    -0.062
    -282.38    -0.150
    -281.35    -0.111
    -280.32    -0.074
    -279.29     0.009
    -278.26     0.030
    -277.23     0.013
    -276.19     0.147
    -275.16     0.096
    -274.13    -0.032
    -273.10    -0.160
    -272.07    -0.008
    -271.04    -0.112
    -270.01    -0.079
    -268.98     0.047
    -267.95     0.013
    -266.92    -0.045
    -265.89     0.074
    -264.86    -0.035
    -263.83     0.202
    -262.80     0.138
    -261.77     0.202
    -260.74    -0.055
    -259.71     0.212
    -258.68    -0.094
    -257.64     0.037
    -256.61    -0.015
    -255.58     0.193
    -254.55     0.022
    -253.52     0.085
    -252.49     0.036
    -251.46     0.014
    -250.43    -0.062
    -249.40    -0.001
    -248.37    -0.054
    -247.34    -0.048
    -246.31    -0.077
    -245.28     0.086
    -244.25     0.138
    -243.22     0.103
    -242.19     0.028
    -241.16     0.140
    -240.12    -0.044
    -239.09    -0.074
    -238.06    -0.020
    -237.03    -0.097
    -236.00    -0.155
    -234.97     0.043
    -233.94    -0.007
    -232.91     0.074
    -231.88    -0.108
    -230.85     0.009
    -229.82    -0.047
    -228.79    -0.005
    -227.76     0.013
    -226.73    -0.122
    -225.70    -0.256
    -224.67     0.018
    -223.64    -0.029
    -222.60    -0.007
    -221.57    -0.024
    -220.54    -0.041
    -219.51    -0.062
    -218.48     0.048
    -217.45    -0.039
    -216.42     0.051
    -215.39     0.046
    -214.36    -0.023
    -213.33     0.143
    -212.30    -0.082
    -211.27     0.028
    -210.24    -0.020
    -209.21    -0.150
    -208.18    -0.156
    -207.15    -0.132
    -206.12    -0.023
    -205.09    -0.088
    -204.05     0.151
    -203.02     0.085
    -201.99    -0.029
    -200.96    -0.138
    -199.93     0.155
    -198.90    -0.012
    -197.87     0.021
    -196.84     0.014
    -195.81    -0.053
    -194.78    -0.113
    -193.75     0.093
    -192.72    -0.021
    -191.69    -0.072
    -190.66     0.014
    -189.63     0.028
    -188.60     0.029
    -187.57    -0.058
    -186.53     0.031
    -185.50     0.120
    -184.47     0.057
    -183.44     0.035
    -182.41     0.005
    -181.38     0.079
    -180.35     0.187
    -179.32     0.076
    -178.29    -0.012
    -177.26    -0.091
    -176.23    -0.013
    -175.20     0.185
    -174.17    -0.065
    -173.14    -0.031
    -172.11    -0.061
    -171.08     0.180
    -170.05    -0.056
    -169.01     0.031
    -167.98    -0.054
    -166.95     0.051
    -165.92     0.128
    -164.89     0.152
    -163.86     0.103
    -162.83    -0.097
    -161.80    -0.024
    -160.77     0.165
    -159.74     0.116
    -158.71    -0.039
    -157.68     0.077
    -156.65     0.129
    -155.62     0.074
    -154.59    -0.016
    -153.56     0.127
    -152.53     0.089
    -151.49     0.228
    -150.46     0.339
    -149.43     0.258
    -148.40     0.268
    -147.37     0.565
    -146.34     0.470
    -145.31     0.675
    -144.28     0.712
    -143.25     0.831
    -142.22     0.882
    -141.19     0.922
    -140.16     0.859
    -139.13     0.938
    -138.10     0.786
