%%            128.00000             3.00000    0             0.12700
% LAB  survey ------------------
% wanted position:  l, b, RA, DEC, and interpolated  NH
%128.00 ;   3.00 ;  25.09 ;  65.39 ;  0.593E+22
% nearest position: l, b, RA, DEC, and observed NH
%128.00 ;   3.00 ;  25.09 ;  65.39 ;  0.593E+22
% GASS III survey --------------
% NH - median within 6 arcmin radius   0.00    
% NH - mean within specified beam      0.00    
% EBHIS survey -----------------
% NH  within specified beam           0.591E+22
%%EBHIS   621  datapoints: v_lsr [km/s] and T_B [K]
    -399.25    -0.043
    -397.96     0.054
    -396.68    -0.060
    -395.39    -0.121
    -394.10     0.047
    -392.81    -0.072
    -391.52    -0.001
    -390.23     0.018
    -388.95     0.079
    -387.66     0.102
    -386.37     0.070
    -385.08    -0.177
    -383.79    -0.105
    -382.50     0.056
    -381.22    -0.056
    -379.93     0.020
    -378.64     0.030
    -377.35     0.223
    -376.06     0.027
    -374.78     0.100
    -373.49     0.032
    -372.20    -0.099
    -370.91    -0.046
    -369.62     0.006
    -368.33     0.086
    -367.05     0.004
    -365.76    -0.131
    -364.47    -0.115
    -363.18    -0.057
    -361.89     0.017
    -360.60    -0.009
    -359.32     0.084
    -358.03     0.044
    -356.74     0.006
    -355.45     0.088
    -354.16     0.041
    -352.88     0.017
    -351.59     0.004
    -350.30    -0.032
    -349.01     0.006
    -347.72    -0.060
    -346.43     0.101
    -345.15     0.020
    -343.86    -0.082
    -342.57     0.007
    -341.28     0.053
    -339.99     0.127
    -338.70     0.060
    -337.42     0.074
    -336.13     0.063
    -334.84     0.104
    -333.55     0.050
    -332.26    -0.025
    -330.98     0.016
    -329.69    -0.089
    -328.40     0.160
    -327.11     0.068
    -325.82    -0.049
    -324.53     0.105
    -323.25     0.134
    -321.96     0.104
    -320.67     0.079
    -319.38    -0.090
    -318.09    -0.086
    -316.80    -0.190
    -315.52    -0.129
    -314.23    -0.110
    -312.94    -0.007
    -311.65     0.055
    -310.36    -0.020
    -309.08    -0.034
    -307.79    -0.189
    -306.50    -0.016
    -305.21     0.101
    -303.92    -0.001
    -302.63     0.090
    -301.35    -0.056
    -300.06    -0.039
    -298.77     0.115
    -297.48     0.007
    -296.19     0.013
    -294.90     0.001
    -293.62    -0.103
    -292.33    -0.039
    -291.04    -0.083
    -289.75    -0.032
    -288.46     0.043
    -287.18    -0.127
    -285.89     0.052
    -284.60     0.059
    -283.31     0.075
    -282.02    -0.090
    -280.73    -0.039
    -279.45    -0.014
    -278.16    -0.041
    -276.87     0.038
    -275.58     0.067
    -274.29    -0.072
    -273.00     0.158
    -271.72    -0.031
    -270.43    -0.116
    -269.14     0.015
    -267.85     0.120
    -266.56    -0.015
    -265.28     0.037
    -263.99    -0.112
    -262.70    -0.151
    -261.41     0.019
    -260.12     0.020
    -258.83     0.007
    -257.55    -0.071
    -256.26    -0.020
    -254.97     0.040
    -253.68    -0.001
    -252.39    -0.020
    -251.10    -0.029
    -249.82     0.099
    -248.53     0.163
    -247.24     0.109
    -245.95     0.014
    -244.66    -0.058
    -243.38     0.047
    -242.09     0.091
    -240.80     0.008
    -239.51     0.019
    -238.22     0.005
    -236.93     0.048
    -235.65     0.061
    -234.36     0.050
    -233.07     0.050
    -231.78     0.070
    -230.49     0.218
    -229.20     0.222
    -227.92     0.392
    -226.63     0.364
    -225.34     0.661
    -224.05     0.712
    -222.76     0.949
    -221.48     1.132
    -220.19     1.514
    -218.90     1.526
    -217.61     1.557
    -216.32     1.496
    -215.03     1.342
    -213.75     1.378
    -212.46     1.244
    -211.17     1.055
    -209.88     1.134
    -208.59     0.993
    -207.30     0.817
    -206.02     0.663
    -204.73     0.751
    -203.44     0.672
    -202.15     0.682
    -200.86     0.492
    -199.58     0.496
    -198.29     0.612
    -197.00     0.434
    -195.71     0.495
    -194.42     0.360
    -193.13     0.361
    -191.85     0.366
    -190.56     0.361
    -189.27     0.258
    -187.98     0.264
    -186.69     0.335
    -185.40     0.286
    -184.12     0.250
    -182.83     0.166
    -181.54     0.177
    -180.25     0.208
    -178.96     0.206
    -177.68     0.177
    -176.39     0.044
    -175.10     0.222
    -173.81     0.117
    -172.52     0.026
    -171.23     0.055
    -169.95     0.116
    -168.66     0.019
    -167.37    -0.051
    -166.08    -0.005
    -164.79    -0.036
    -163.50    -0.009
    -162.22    -0.056
    -160.93     0.029
    -159.64     0.082
    -158.35     0.127
    -157.06     0.005
    -155.78     0.050
    -154.49    -0.057
    -153.20    -0.008
    -151.91     0.030
    -150.62     0.004
    -149.33     0.284
    -148.05     0.082
    -146.76     0.142
    -145.47     0.099
    -144.18     0.166
    -142.89     0.509
    -141.60     0.659
    -140.32     1.477
    -139.03     2.711
    -137.74     4.123
    -136.45     4.909
    -135.16     5.054
    -133.88     4.217
    -132.59     3.129
    -131.30     2.281
    -130.01     1.900
    -128.72     1.754
    -127.43     1.806
    -126.15     1.924
    -124.86     1.920
    -123.57     1.729
    -122.28     1.449
    -120.99     1.399
    -119.70     1.354
    -118.42     1.424
    -117.13     1.512
    -115.84     1.540
    -114.55     1.846
    -113.26     2.665
    -111.98     3.726
    -110.69     4.986
    -109.40     6.199
    -108.11     6.975
    -106.82     7.505
    -105.53     8.362
    -104.25    11.791
    -102.96    16.690
    -101.67    18.663
    -100.38    18.505
     -99.09    16.467
     -97.80    12.375
     -96.52     9.456
     -95.23     8.120
     -93.94     8.872
     -92.65    10.812
     -91.36    12.993
     -90.08    15.546
     -88.79    18.033
     -87.50    19.164
     -86.21    17.992
     -84.92    15.762
     -83.63    13.778
     -82.35    12.551
     -81.06    11.886
     -79.77    10.451
     -78.48     9.190
     -77.19     8.360
     -75.90     8.393
     -74.62     9.353
     -73.33    11.289
     -72.04    14.858
     -70.75    19.117
     -69.46    22.510
     -68.18    24.827
     -66.89    27.734
     -65.60    33.067
     -64.31    38.907
     -63.02    43.993
     -61.73    47.282
     -60.45    50.779
     -59.16    53.758
     -57.87    54.179
     -56.58    51.646
     -55.29    48.676
     -54.00    46.735
     -52.72    45.473
     -51.43    43.197
     -50.14    38.460
     -48.85    33.939
     -47.56    29.901
     -46.28    28.022
     -44.99    27.948
     -43.70    28.532
     -42.41    28.328
     -41.12    25.625
     -39.83    21.729
     -38.55    18.082
     -37.26    15.413
     -35.97    13.655
     -34.68    11.528
     -33.39    10.088
     -32.10     8.747
     -30.82     8.006
     -29.53     7.453
     -28.24     7.249
     -26.95     7.303
     -25.66     7.657
     -24.38     8.370
     -23.09     9.868
     -21.80    12.436
     -20.51    17.548
     -19.22    26.505
     -17.93    38.284
     -16.65    48.741
     -15.36    56.601
     -14.07    61.742
     -12.78    66.536
     -11.49    72.197
     -10.20    73.721
      -8.92    60.827
      -7.63    43.236
      -6.34    35.570
      -5.05    36.290
      -3.76    38.894
      -2.48    42.071
      -1.19    44.275
       0.10    42.257
       1.39    37.373
       2.68    35.199
       3.97    30.744
       5.25    23.109
       6.54    15.850
       7.83    11.460
       9.12     8.712
      10.41     6.551
      11.70     5.043
      12.98     3.985
      14.27     3.280
      15.56     2.246
      16.85     1.520
      18.14     1.167
      19.42     0.738
      20.71     0.453
      22.00     0.339
      23.29     0.370
      24.58     0.270
      25.87     0.287
      27.15     0.222
      28.44     0.195
      29.73     0.050
      31.02     0.186
      32.31     0.183
      33.60     0.100
      34.88     0.009
      36.17    -0.071
      37.46    -0.014
      38.75    -0.054
      40.04    -0.006
      41.32    -0.035
      42.61     0.069
      43.90    -0.078
      45.19    -0.076
      46.48     0.006
      47.77     0.015
      49.05    -0.070
      50.34     0.014
      51.63     0.020
      52.92    -0.005
      54.21    -0.031
      55.50     0.103
      56.78     0.029
      58.07     0.052
      59.36     0.083
      60.65     0.040
      61.94     0.140
      63.22     0.002
      64.51    -0.024
      65.80    -0.018
      67.09    -0.076
      68.38    -0.058
      69.67     0.190
      70.95     0.094
      72.24    -0.046
      73.53     0.016
      74.82    -0.089
      76.11     0.029
      77.40     0.118
      78.68     0.004
      79.97    -0.095
      81.26    -0.004
      82.55    -0.117
      83.84    -0.027
      85.12     0.042
      86.41     0.004
      87.70     0.107
      88.99     0.126
      90.28     0.049
      91.57    -0.057
      92.85     0.082
      94.14     0.052
      95.43     0.089
      96.72    -0.015
      98.01    -0.061
      99.30    -0.016
     100.58    -0.087
     101.87    -0.087
     103.16    -0.028
     104.45    -0.081
     105.74    -0.072
     107.02    -0.075
     108.31    -0.111
     109.60    -0.143
     110.89    -0.072
     112.18     0.014
     113.47     0.094
     114.75    -0.087
     116.04     0.045
     117.33     0.131
     118.62     0.052
     119.91     0.045
     121.20    -0.053
     122.48    -0.082
     123.77     0.041
     125.06    -0.030
     126.35     0.047
     127.64     0.186
     128.92     0.019
     130.21    -0.113
     131.50    -0.027
     132.79    -0.010
     134.08    -0.058
     135.37     0.055
     136.65     0.012
     137.94    -0.031
     139.23    -0.119
     140.52    -0.010
     141.81     0.024
     143.09     0.008
     144.38    -0.031
     145.67    -0.116
     146.96    -0.020
     148.25     0.051
     149.54     0.074
     150.82     0.047
     152.11    -0.016
     153.40    -0.071
     154.69    -0.023
     155.98    -0.091
     157.27    -0.005
     158.55     0.182
     159.84     0.059
     161.13     0.027
     162.42     0.022
     163.71     0.104
     164.99    -0.037
     166.28    -0.031
     167.57    -0.050
     168.86    -0.014
     170.15    -0.051
     171.44     0.055
     172.72    -0.111
     174.01    -0.059
     175.30     0.059
     176.59     0.083
     177.88     0.039
     179.17     0.103
     180.45     0.072
     181.74    -0.047
     183.03    -0.022
     184.32    -0.113
     185.61     0.125
     186.89    -0.016
     188.18     0.007
     189.47    -0.120
     190.76    -0.140
     192.05    -0.013
     193.34     0.029
     194.62     0.035
     195.91     0.125
     197.20    -0.044
     198.49     0.064
     199.78    -0.014
     201.07    -0.039
     202.35     0.026
     203.64     0.087
     204.93    -0.027
     206.22    -0.070
     207.51     0.092
     208.79     0.053
     210.08     0.043
     211.37     0.132
     212.66    -0.100
     213.95    -0.087
     215.24    -0.016
     216.52     0.174
     217.81    -0.036
     219.10    -0.210
     220.39    -0.066
     221.68     0.050
     222.97    -0.007
     224.25     0.019
     225.54     0.109
     226.83     0.053
     228.12    -0.015
     229.41     0.067
     230.69    -0.059
     231.98     0.003
     233.27    -0.083
     234.56     0.050
     235.85     0.088
     237.14    -0.082
     238.42    -0.013
     239.71    -0.031
     241.00     0.028
     242.29    -0.020
     243.58     0.100
     244.87     0.084
     246.15     0.107
     247.44     0.027
     248.73     0.054
     250.02    -0.003
     251.31    -0.037
     252.59    -0.149
     253.88    -0.137
     255.17    -0.041
     256.46     0.065
     257.75     0.073
     259.04     0.074
     260.32     0.088
     261.61     0.130
     262.90     0.002
     264.19     0.016
     265.48     0.073
     266.77     0.022
     268.05    -0.057
     269.34    -0.162
     270.63    -0.072
     271.92    -0.016
     273.21     0.099
     274.49    -0.037
     275.78     0.016
     277.07    -0.023
     278.36     0.097
     279.65    -0.052
     280.94    -0.031
     282.22    -0.007
     283.51     0.081
     284.80    -0.021
     286.09     0.066
     287.38     0.070
     288.67    -0.050
     289.95    -0.073
     291.24     0.035
     292.53     0.040
     293.82     0.047
     295.11    -0.013
     296.39     0.092
     297.68    -0.036
     298.97    -0.098
     300.26     0.061
     301.55     0.136
     302.84     0.084
     304.12    -0.043
     305.41    -0.092
     306.70    -0.015
     307.99     0.036
     309.28     0.054
     310.57     0.136
     311.85    -0.118
     313.14     0.055
     314.43    -0.107
     315.72    -0.089
     317.01    -0.085
     318.29    -0.037
     319.58     0.041
     320.87    -0.091
     322.16     0.027
     323.45     0.015
     324.74     0.024
     326.02    -0.071
     327.31     0.071
     328.60     0.128
     329.89     0.039
     331.18     0.040
     332.47    -0.019
     333.75    -0.012
     335.04     0.110
     336.33    -0.035
     337.62     0.009
     338.91    -0.016
     340.19    -0.032
     341.48     0.029
     342.77     0.079
     344.06    -0.056
     345.35    -0.007
     346.64    -0.001
     347.92    -0.046
     349.21     0.054
     350.50    -0.099
     351.79     0.027
     353.08     0.001
     354.37    -0.110
     355.65    -0.091
     356.94     0.041
     358.23     0.052
     359.52    -0.004
     360.81    -0.069
     362.09    -0.029
     363.38     0.156
     364.67     0.143
     365.96     0.037
     367.25     0.039
     368.54     0.041
     369.82    -0.081
     371.11    -0.097
     372.40    -0.100
     373.69    -0.015
     374.98    -0.041
     376.27    -0.021
     377.55     0.013
     378.84     0.033
     380.13     0.119
     381.42    -0.105
     382.71    -0.107
     383.99    -0.064
     385.28    -0.037
     386.57     0.074
     387.86    -0.016
     389.15     0.087
     390.44    -0.034
     391.72     0.013
     393.01     0.038
     394.30     0.085
     395.59     0.026
     396.88    -0.033
     398.17    -0.101
     399.45    -0.039
%%GASS      0  datapoints: v_lsr [km/s] and T_B [K] for beam weighted average and median within 6 arcmin
%%LAB     777  datapoints: v_lsr [km/s] and T_B [K]
    -399.88     0.051
    -398.85     0.047
    -397.81     0.092
    -396.78     0.044
    -395.75     0.024
    -394.72     0.014
    -393.69     0.068
    -392.66    -0.061
    -391.63    -0.007
    -390.60     0.063
    -389.57     0.031
    -388.54     0.011
    -387.51    -0.002
    -386.48    -0.060
    -385.45     0.111
    -384.42     0.011
    -383.39    -0.009
    -382.36    -0.128
    -381.33    -0.049
    -380.29     0.008
    -379.26     0.039
    -378.23    -0.153
    -377.20     0.109
    -376.17    -0.017
    -375.14     0.021
    -374.11    -0.015
    -373.08    -0.055
    -372.05     0.006
    -371.02    -0.078
    -369.99     0.176
    -368.96     0.092
    -367.93    -0.198
    -366.90    -0.070
    -365.87     0.139
    -364.84     0.108
    -363.80     0.169
    -362.77    -0.137
    -361.74    -0.069
    -360.71     0.131
    -359.68    -0.039
    -358.65     0.036
    -357.62    -0.013
    -356.59    -0.085
    -355.56    -0.015
    -354.53     0.052
    -353.50     0.149
    -352.47     0.108
    -351.44     0.025
    -350.41     0.015
    -349.38     0.026
    -348.35     0.141
    -347.32     0.003
    -346.28     0.018
    -345.25     0.133
    -344.22    -0.017
    -343.19     0.041
    -342.16     0.017
    -341.13    -0.034
    -340.10    -0.102
    -339.07    -0.114
    -338.04     0.011
    -337.01     0.099
    -335.98     0.011
    -334.95     0.039
    -333.92    -0.111
    -332.89     0.171
    -331.86     0.005
    -330.83    -0.013
    -329.79    -0.083
    -328.76    -0.016
    -327.73    -0.062
    -326.70    -0.056
    -325.67     0.087
    -324.64    -0.062
    -323.61     0.075
    -322.58     0.040
    -321.55    -0.083
    -320.52    -0.084
    -319.49     0.015
    -318.46    -0.085
    -317.43     0.096
    -316.40     0.032
    -315.37    -0.048
    -314.34    -0.034
    -313.30     0.196
    -312.27     0.155
    -311.24     0.088
    -310.21    -0.068
    -309.18    -0.245
    -308.15    -0.029
    -307.12     0.061
    -306.09    -0.030
    -305.06    -0.037
    -304.03     0.061
    -303.00     0.008
    -301.97     0.025
    -300.94    -0.052
    -299.91    -0.038
    -298.88    -0.038
    -297.85    -0.048
    -296.82    -0.060
    -295.78     0.088
    -294.75    -0.065
    -293.72    -0.219
    -292.69    -0.020
    -291.66    -0.052
    -290.63     0.219
    -289.60    -0.067
    -288.57     0.073
    -287.54    -0.014
    -286.51    -0.005
    -285.48     0.146
    -284.45    -0.014
    -283.42     0.059
    -282.39    -0.056
    -281.36     0.061
    -280.33     0.121
    -279.29    -0.062
    -278.26    -0.039
    -277.23    -0.054
    -276.20    -0.071
    -275.17     0.049
    -274.14     0.088
    -273.11    -0.023
    -272.08    -0.038
    -271.05     0.018
    -270.02    -0.018
    -268.99    -0.128
    -267.96    -0.113
    -266.93     0.079
    -265.90     0.034
    -264.87     0.071
    -263.84    -0.021
    -262.81    -0.056
    -261.77     0.106
    -260.74    -0.056
    -259.71     0.084
    -258.68     0.001
    -257.65     0.073
    -256.62    -0.005
    -255.59    -0.040
    -254.56    -0.064
    -253.53    -0.080
    -252.50    -0.031
    -251.47     0.075
    -250.44     0.046
    -249.41    -0.099
    -248.38    -0.103
    -247.35    -0.017
    -246.32     0.119
    -245.28     0.095
    -244.25    -0.045
    -243.22     0.113
    -242.19    -0.117
    -241.16    -0.008
    -240.13    -0.012
    -239.10     0.023
    -238.07    -0.036
    -237.04     0.040
    -236.01     0.067
    -234.98     0.056
    -233.95     0.099
    -232.92     0.203
    -231.89     0.242
    -230.86     0.203
    -229.83     0.250
    -228.80     0.289
    -227.76     0.129
    -226.73     0.485
    -225.70     0.486
    -224.67     0.720
    -223.64     0.833
    -222.61     0.855
    -221.58     0.992
    -220.55     1.064
    -219.52     1.175
    -218.49     1.322
    -217.46     1.566
    -216.43     1.715
    -215.40     1.669
    -214.37     1.824
    -213.34     1.516
    -212.31     1.570
    -211.27     1.462
    -210.24     1.355
    -209.21     1.325
    -208.18     1.192
    -207.15     1.124
    -206.12     0.892
    -205.09     0.987
    -204.06     0.833
    -203.03     0.650
    -202.00     0.838
    -200.97     0.725
    -199.94     0.496
    -198.91     0.552
    -197.88     0.411
    -196.85     0.450
    -195.82     0.386
    -194.78     0.278
    -193.75     0.327
    -192.72     0.327
    -191.69     0.381
    -190.66     0.306
    -189.63     0.111
    -188.60     0.076
    -187.57     0.327
    -186.54     0.246
    -185.51     0.181
    -184.48     0.302
    -183.45     0.311
    -182.42     0.192
    -181.39     0.271
    -180.36     0.087
    -179.33     0.033
    -178.30     0.142
    -177.26     0.199
    -176.23     0.013
    -175.20     0.210
    -174.17     0.242
    -173.14     0.276
    -172.11    -0.012
    -171.08     0.040
    -170.05     0.122
    -169.02     0.020
    -167.99    -0.016
    -166.96     0.124
    -165.93     0.067
    -164.90     0.057
    -163.87     0.078
    -162.84     0.052
    -161.81     0.014
    -160.77     0.048
    -159.74     0.188
    -158.71     0.020
    -157.68    -0.048
    -156.65     0.179
    -155.62     0.037
    -154.59     0.177
    -153.56     0.051
    -152.53    -0.009
    -151.50     0.218
    -150.47     0.188
    -149.44     0.062
    -148.41     0.146
    -147.38     0.044
    -146.35     0.183
    -145.32     0.277
    -144.29     0.185
    -143.25     0.261
    -142.22     0.496
    -141.19     0.589
    -140.16     1.016
    -139.13     1.539
    -138.10     2.065
