%%            158.00000             3.00000    0             0.12700
% LAB  survey ------------------
% wanted position:  l, b, RA, DEC, and interpolated  NH
%158.00 ;   3.00 ;  73.25 ;  48.70 ;  0.455E+22
% nearest position: l, b, RA, DEC, and observed NH
%158.00 ;   3.00 ;  73.25 ;  48.70 ;  0.455E+22
% GASS III survey --------------
% NH - median within 6 arcmin radius   0.00    
% NH - mean within specified beam      0.00    
% EBHIS survey -----------------
% NH  within specified beam           0.459E+22
%%EBHIS   621  datapoints: v_lsr [km/s] and T_B [K]
    -399.25     0.032
    -397.96     0.021
    -396.68     0.032
    -395.39     0.029
    -394.10     0.092
    -392.81     0.093
    -391.52     0.040
    -390.23     0.034
    -388.95    -0.009
    -387.66    -0.009
    -386.37     0.032
    -385.08    -0.039
    -383.79    -0.120
    -382.50     0.018
    -381.22     0.143
    -379.93    -0.006
    -378.64     0.023
    -377.35    -0.053
    -376.06    -0.016
    -374.78    -0.025
    -373.49    -0.123
    -372.20    -0.029
    -370.91     0.141
    -369.62     0.147
    -368.33     0.085
    -367.05     0.025
    -365.76    -0.010
    -364.47    -0.000
    -363.18     0.008
    -361.89     0.069
    -360.60     0.058
    -359.32    -0.025
    -358.03     0.012
    -356.74     0.048
    -355.45     0.074
    -354.16     0.093
    -352.88    -0.005
    -351.59    -0.028
    -350.30     0.055
    -349.01     0.067
    -347.72     0.010
    -346.43    -0.064
    -345.15     0.043
    -343.86     0.034
    -342.57    -0.006
    -341.28     0.061
    -339.99     0.049
    -338.70     0.036
    -337.42    -0.004
    -336.13    -0.085
    -334.84    -0.000
    -333.55    -0.002
    -332.26    -0.034
    -330.98    -0.083
    -329.69    -0.064
    -328.40    -0.051
    -327.11    -0.023
    -325.82     0.047
    -324.53     0.066
    -323.25     0.061
    -321.96     0.075
    -320.67    -0.004
    -319.38    -0.060
    -318.09    -0.069
    -316.80     0.030
    -315.52     0.058
    -314.23     0.013
    -312.94    -0.001
    -311.65     0.007
    -310.36    -0.031
    -309.08     0.022
    -307.79     0.007
    -306.50    -0.044
    -305.21     0.095
    -303.92    -0.038
    -302.63     0.052
    -301.35     0.044
    -300.06     0.070
    -298.77     0.078
    -297.48    -0.030
    -296.19    -0.046
    -294.90    -0.014
    -293.62     0.049
    -292.33    -0.001
    -291.04    -0.065
    -289.75    -0.043
    -288.46    -0.038
    -287.18    -0.095
    -285.89    -0.026
    -284.60     0.005
    -283.31    -0.075
    -282.02    -0.115
    -280.73    -0.026
    -279.45     0.030
    -278.16    -0.029
    -276.87     0.066
    -275.58    -0.030
    -274.29    -0.098
    -273.00    -0.113
    -271.72     0.011
    -270.43    -0.094
    -269.14    -0.006
    -267.85     0.036
    -266.56     0.039
    -265.28    -0.070
    -263.99    -0.100
    -262.70    -0.137
    -261.41    -0.041
    -260.12    -0.010
    -258.83    -0.028
    -257.55    -0.014
    -256.26     0.060
    -254.97     0.051
    -253.68    -0.022
    -252.39    -0.018
    -251.10     0.009
    -249.82    -0.042
    -248.53    -0.045
    -247.24     0.039
    -245.95     0.012
    -244.66     0.089
    -243.38     0.098
    -242.09     0.072
    -240.80    -0.012
    -239.51    -0.128
    -238.22     0.018
    -236.93    -0.003
    -235.65    -0.009
    -234.36     0.062
    -233.07     0.009
    -231.78     0.021
    -230.49     0.021
    -229.20     0.018
    -227.92     0.066
    -226.63    -0.159
    -225.34    -0.096
    -224.05    -0.048
    -222.76    -0.054
    -221.48    -0.024
    -220.19     0.006
    -218.90    -0.043
    -217.61    -0.003
    -216.32     0.072
    -215.03    -0.068
    -213.75     0.052
    -212.46    -0.029
    -211.17    -0.033
    -209.88    -0.017
    -208.59     0.049
    -207.30     0.045
    -206.02    -0.040
    -204.73    -0.017
    -203.44     0.013
    -202.15     0.051
    -200.86     0.099
    -199.58     0.136
    -198.29     0.011
    -197.00    -0.014
    -195.71    -0.121
    -194.42    -0.041
    -193.13     0.006
    -191.85    -0.061
    -190.56    -0.040
    -189.27     0.046
    -187.98     0.031
    -186.69    -0.060
    -185.40    -0.080
    -184.12     0.040
    -182.83     0.034
    -181.54     0.052
    -180.25     0.055
    -178.96     0.045
    -177.68     0.040
    -176.39    -0.002
    -175.10    -0.052
    -173.81    -0.053
    -172.52    -0.043
    -171.23    -0.138
    -169.95    -0.065
    -168.66     0.071
    -167.37     0.039
    -166.08    -0.003
    -164.79     0.052
    -163.50     0.060
    -162.22     0.019
    -160.93     0.008
    -159.64     0.009
    -158.35     0.057
    -157.06    -0.069
    -155.78     0.103
    -154.49     0.025
    -153.20    -0.053
    -151.91    -0.052
    -150.62     0.018
    -149.33    -0.036
    -148.05    -0.047
    -146.76    -0.010
    -145.47    -0.001
    -144.18     0.128
    -142.89     0.096
    -141.60    -0.011
    -140.32    -0.039
    -139.03     0.095
    -137.74     0.345
    -136.45     0.482
    -135.16     0.682
    -133.88     0.941
    -132.59     1.229
    -131.30     1.134
    -130.01     0.901
    -128.72     0.850
    -127.43     0.668
    -126.15     0.402
    -124.86     0.420
    -123.57     0.359
    -122.28     0.348
    -120.99     0.340
    -119.70     0.286
    -118.42     0.306
    -117.13     0.193
    -115.84     0.244
    -114.55     0.161
    -113.26     0.156
    -111.98     0.202
    -110.69     0.169
    -109.40     0.086
    -108.11     0.183
    -106.82     0.177
    -105.53     0.129
    -104.25     0.104
    -102.96     0.147
    -101.67     0.165
    -100.38     0.187
     -99.09     0.057
     -97.80     0.164
     -96.52     0.147
     -95.23     0.222
     -93.94     0.374
     -92.65     0.529
     -91.36     0.860
     -90.08     1.246
     -88.79     1.765
     -87.50     2.073
     -86.21     2.357
     -84.92     2.491
     -83.63     2.299
     -82.35     2.000
     -81.06     1.749
     -79.77     1.583
     -78.48     1.386
     -77.19     1.107
     -75.90     1.072
     -74.62     0.968
     -73.33     1.003
     -72.04     1.162
     -70.75     1.263
     -69.46     1.464
     -68.18     1.656
     -66.89     1.747
     -65.60     1.905
     -64.31     2.061
     -63.02     2.371
     -61.73     2.842
     -60.45     3.114
     -59.16     3.240
     -57.87     3.282
     -56.58     3.199
     -55.29     3.203
     -54.00     3.459
     -52.72     3.748
     -51.43     4.090
     -50.14     4.532
     -48.85     5.334
     -47.56     6.286
     -46.28     7.900
     -44.99     9.707
     -43.70    11.775
     -42.41    14.364
     -41.12    18.751
     -39.83    24.647
     -38.55    31.225
     -37.26    36.982
     -35.97    43.355
     -34.68    49.971
     -33.39    56.639
     -32.10    60.497
     -30.82    60.551
     -29.53    58.784
     -28.24    56.515
     -26.95    54.722
     -25.66    55.086
     -24.38    58.101
     -23.09    62.697
     -21.80    65.432
     -20.51    61.447
     -19.22    52.864
     -17.93    44.230
     -16.65    37.149
     -15.36    31.875
     -14.07    28.759
     -12.78    27.937
     -11.49    29.338
     -10.20    33.808
      -8.92    42.327
      -7.63    53.946
      -6.34    62.351
      -5.05    63.053
      -3.76    61.398
      -2.48    61.057
      -1.19    60.460
       0.10    54.703
       1.39    43.876
       2.68    31.921
       3.97    24.637
       5.25    25.116
       6.54    23.323
       7.83    17.799
       9.12    13.535
      10.41    10.279
      11.70     7.381
      12.98     4.387
      14.27     2.506
      15.56     1.751
      16.85     1.213
      18.14     0.876
      19.42     0.629
      20.71     0.457
      22.00     0.420
      23.29     0.311
      24.58     0.071
      25.87     0.083
      27.15     0.077
      28.44     0.125
      29.73     0.078
      31.02     0.123
      32.31     0.108
      33.60     0.081
      34.88     0.041
      36.17    -0.003
      37.46     0.002
      38.75    -0.005
      40.04     0.096
      41.32     0.060
      42.61    -0.035
      43.90    -0.081
      45.19     0.031
      46.48     0.093
      47.77     0.065
      49.05     0.089
      50.34     0.014
      51.63    -0.080
      52.92     0.023
      54.21     0.021
      55.50    -0.040
      56.78    -0.042
      58.07    -0.015
      59.36    -0.059
      60.65    -0.024
      61.94    -0.034
      63.22    -0.012
      64.51     0.073
      65.80     0.039
      67.09    -0.077
      68.38     0.063
      69.67    -0.046
      70.95     0.022
      72.24     0.006
      73.53    -0.009
      74.82    -0.057
      76.11    -0.065
      77.40    -0.059
      78.68    -0.018
      79.97    -0.028
      81.26    -0.127
      82.55    -0.087
      83.84    -0.094
      85.12     0.044
      86.41     0.049
      87.70    -0.024
      88.99    -0.062
      90.28     0.014
      91.57    -0.006
      92.85     0.000
      94.14     0.131
      95.43     0.083
      96.72    -0.008
      98.01     0.053
      99.30    -0.006
     100.58     0.008
     101.87    -0.036
     103.16    -0.034
     104.45     0.061
     105.74     0.014
     107.02     0.035
     108.31     0.010
     109.60     0.112
     110.89     0.064
     112.18    -0.003
     113.47    -0.028
     114.75     0.036
     116.04     0.065
     117.33     0.033
     118.62    -0.064
     119.91    -0.017
     121.20     0.075
     122.48     0.062
     123.77     0.024
     125.06     0.045
     126.35     0.092
     127.64    -0.007
     128.92     0.034
     130.21     0.009
     131.50    -0.024
     132.79    -0.030
     134.08     0.056
     135.37     0.067
     136.65     0.021
     137.94    -0.046
     139.23    -0.077
     140.52     0.086
     141.81     0.145
     143.09    -0.094
     144.38    -0.015
     145.67     0.045
     146.96     0.050
     148.25     0.049
     149.54     0.023
     150.82     0.026
     152.11     0.029
     153.40     0.062
     154.69     0.026
     155.98     0.026
     157.27    -0.029
     158.55     0.054
     159.84     0.047
     161.13     0.038
     162.42    -0.010
     163.71    -0.009
     164.99    -0.038
     166.28     0.075
     167.57    -0.036
     168.86    -0.022
     170.15    -0.023
     171.44     0.012
     172.72    -0.049
     174.01     0.054
     175.30     0.046
     176.59     0.112
     177.88     0.067
     179.17     0.018
     180.45    -0.071
     181.74     0.037
     183.03     0.020
     184.32    -0.019
     185.61    -0.007
     186.89    -0.088
     188.18    -0.032
     189.47    -0.009
     190.76    -0.090
     192.05    -0.004
     193.34     0.029
     194.62     0.078
     195.91     0.057
     197.20     0.142
     198.49     0.019
     199.78    -0.011
     201.07     0.004
     202.35    -0.004
     203.64    -0.049
     204.93    -0.004
     206.22     0.010
     207.51     0.049
     208.79     0.045
     210.08     0.037
     211.37    -0.094
     212.66     0.011
     213.95     0.020
     215.24     0.044
     216.52     0.028
     217.81     0.093
     219.10    -0.002
     220.39    -0.065
     221.68    -0.133
     222.97    -0.113
     224.25    -0.042
     225.54     0.014
     226.83     0.114
     228.12    -0.019
     229.41    -0.026
     230.69    -0.035
     231.98    -0.008
     233.27     0.003
     234.56     0.037
     235.85    -0.095
     237.14     0.034
     238.42     0.064
     239.71     0.037
     241.00     0.026
     242.29    -0.031
     243.58     0.045
     244.87     0.033
     246.15    -0.000
     247.44    -0.024
     248.73     0.080
     250.02     0.000
     251.31    -0.021
     252.59     0.040
     253.88    -0.011
     255.17    -0.010
     256.46     0.050
     257.75    -0.009
     259.04     0.002
     260.32     0.025
     261.61     0.017
     262.90    -0.011
     264.19     0.033
     265.48    -0.024
     266.77     0.059
     268.05     0.035
     269.34    -0.053
     270.63    -0.066
     271.92    -0.008
     273.21     0.046
     274.49     0.055
     275.78     0.035
     277.07    -0.167
     278.36    -0.037
     279.65     0.060
     280.94     0.012
     282.22     0.025
     283.51     0.077
     284.80    -0.018
     286.09    -0.058
     287.38    -0.057
     288.67     0.093
     289.95     0.029
     291.24     0.068
     292.53     0.036
     293.82     0.014
     295.11    -0.073
     296.39     0.004
     297.68    -0.048
     298.97    -0.092
     300.26    -0.019
     301.55     0.091
     302.84    -0.005
     304.12     0.066
     305.41    -0.081
     306.70    -0.052
     307.99    -0.018
     309.28    -0.033
     310.57     0.014
     311.85     0.016
     313.14     0.122
     314.43     0.006
     315.72     0.043
     317.01     0.170
     318.29     0.144
     319.58     0.040
     320.87     0.099
     322.16     0.048
     323.45     0.071
     324.74     0.079
     326.02    -0.002
     327.31     0.056
     328.60     0.069
     329.89     0.042
     331.18    -0.078
     332.47    -0.011
     333.75     0.062
     335.04     0.027
     336.33    -0.015
     337.62     0.053
     338.91     0.042
     340.19    -0.020
     341.48     0.005
     342.77     0.073
     344.06     0.070
     345.35    -0.048
     346.64    -0.109
     347.92    -0.095
     349.21    -0.050
     350.50     0.015
     351.79    -0.030
     353.08    -0.036
     354.37     0.052
     355.65     0.007
     356.94     0.059
     358.23     0.004
     359.52    -0.018
     360.81     0.009
     362.09    -0.000
     363.38    -0.036
     364.67    -0.179
     365.96    -0.145
     367.25    -0.029
     368.54     0.105
     369.82     0.015
     371.11    -0.014
     372.40     0.097
     373.69     0.090
     374.98     0.091
     376.27     0.057
     377.55     0.018
     378.84    -0.022
     380.13    -0.002
     381.42    -0.014
     382.71    -0.038
     383.99     0.020
     385.28     0.006
     386.57    -0.043
     387.86    -0.068
     389.15     0.004
     390.44     0.004
     391.72    -0.038
     393.01    -0.066
     394.30    -0.026
     395.59     0.006
     396.88    -0.009
     398.17     0.009
     399.45     0.004
%%GASS      0  datapoints: v_lsr [km/s] and T_B [K] for beam weighted average and median within 6 arcmin
%%LAB     777  datapoints: v_lsr [km/s] and T_B [K]
    -399.89    -0.030
    -398.86    -0.057
    -397.83    -0.015
    -396.80    -0.166
    -395.77     0.024
    -394.74     0.069
    -393.71     0.027
    -392.68     0.131
    -391.65     0.150
    -390.62     0.100
    -389.59    -0.054
    -388.56     0.099
    -387.53     0.039
    -386.49    -0.047
    -385.46    -0.175
    -384.43     0.136
    -383.40     0.124
    -382.37     0.028
    -381.34    -0.031
    -380.31    -0.015
    -379.28    -0.085
    -378.25     0.013
    -377.22     0.079
    -376.19     0.083
    -375.16     0.050
    -374.13    -0.006
    -373.10    -0.024
    -372.07    -0.074
    -371.04     0.168
    -370.00     0.134
    -368.97    -0.060
    -367.94    -0.059
    -366.91    -0.016
    -365.88    -0.068
    -364.85     0.059
    -363.82    -0.157
    -362.79    -0.126
    -361.76     0.104
    -360.73    -0.048
    -359.70     0.025
    -358.67    -0.133
    -357.64    -0.050
    -356.61     0.128
    -355.58    -0.041
    -354.54     0.043
    -353.51    -0.210
    -352.48     0.131
    -351.45    -0.021
    -350.42     0.036
    -349.39    -0.080
    -348.36     0.112
    -347.33    -0.070
    -346.30    -0.226
    -345.27    -0.045
    -344.24    -0.085
    -343.21     0.048
    -342.18     0.055
    -341.15    -0.033
    -340.12     0.008
    -339.08    -0.008
    -338.05    -0.189
    -337.02     0.021
    -335.99     0.015
    -334.96    -0.034
    -333.93    -0.039
    -332.90     0.048
    -331.87    -0.091
    -330.84    -0.146
    -329.81    -0.042
    -328.78     0.185
    -327.75    -0.017
    -326.72    -0.066
    -325.69    -0.016
    -324.66     0.012
    -323.63    -0.039
    -322.59     0.119
    -321.56    -0.105
    -320.53     0.061
    -319.50     0.021
    -318.47     0.047
    -317.44    -0.100
    -316.41     0.104
    -315.38    -0.008
    -314.35     0.104
    -313.32     0.029
    -312.29     0.046
    -311.26     0.052
    -310.23    -0.002
    -309.20     0.080
    -308.17     0.135
    -307.13    -0.072
    -306.10     0.153
    -305.07     0.183
    -304.04     0.085
    -303.01     0.261
    -301.98     0.157
    -300.95     0.095
    -299.92    -0.042
    -298.89    -0.042
    -297.86    -0.134
    -296.83    -0.101
    -295.80    -0.143
    -294.77     0.006
    -293.74     0.027
    -292.71    -0.149
    -291.67    -0.037
    -290.64     0.043
    -289.61     0.020
    -288.58    -0.045
    -287.55    -0.031
    -286.52    -0.022
    -285.49     0.191
    -284.46     0.185
    -283.43     0.028
    -282.40     0.074
    -281.37    -0.035
    -280.34     0.085
    -279.31     0.098
    -278.28    -0.193
    -277.25    -0.120
    -276.22     0.048
    -275.18     0.019
    -274.15     0.070
    -273.12    -0.009
    -272.09    -0.003
    -271.06    -0.094
    -270.03    -0.141
    -269.00     0.206
    -267.97    -0.036
    -266.94     0.112
    -265.91     0.013
    -264.88    -0.056
    -263.85     0.113
    -262.82     0.061
    -261.79     0.078
    -260.76     0.070
    -259.72    -0.001
    -258.69     0.037
    -257.66    -0.158
    -256.63    -0.147
    -255.60     0.055
    -254.57     0.035
    -253.54     0.141
    -252.51     0.105
    -251.48     0.064
    -250.45    -0.061
    -249.42    -0.003
    -248.39     0.070
    -247.36    -0.057
    -246.33     0.074
    -245.30     0.092
    -244.26    -0.011
    -243.23     0.028
    -242.20     0.047
    -241.17     0.103
    -240.14    -0.103
    -239.11    -0.036
    -238.08    -0.085
    -237.05     0.119
    -236.02     0.068
    -234.99     0.092
    -233.96    -0.090
    -232.93     0.133
    -231.90     0.060
    -230.87     0.076
    -229.84    -0.068
    -228.81     0.089
    -227.77    -0.038
    -226.74    -0.049
    -225.71    -0.056
    -224.68    -0.036
    -223.65    -0.084
    -222.62    -0.138
    -221.59    -0.132
    -220.56    -0.004
    -219.53    -0.088
    -218.50     0.136
    -217.47     0.041
    -216.44    -0.031
    -215.41     0.016
    -214.38     0.070
    -213.35    -0.061
    -212.31    -0.120
    -211.28     0.043
    -210.25    -0.205
    -209.22    -0.185
    -208.19    -0.072
    -207.16    -0.117
    -206.13     0.203
    -205.10    -0.157
    -204.07     0.040
    -203.04    -0.042
    -202.01     0.069
    -200.98     0.028
    -199.95    -0.097
    -198.92    -0.019
    -197.89     0.079
    -196.85     0.032
    -195.82     0.138
    -194.79    -0.005
    -193.76     0.023
    -192.73     0.056
    -191.70     0.069
    -190.67     0.111
    -189.64     0.107
    -188.61     0.041
    -187.58     0.106
    -186.55    -0.162
    -185.52     0.023
    -184.49    -0.035
    -183.46     0.097
    -182.43    -0.019
    -181.39     0.204
    -180.36    -0.039
    -179.33    -0.111
    -178.30    -0.042
    -177.27    -0.030
    -176.24     0.017
    -175.21     0.034
    -174.18     0.044
    -173.15    -0.090
    -172.12     0.117
    -171.09     0.108
    -170.06    -0.115
    -169.03     0.076
    -168.00    -0.166
    -166.97     0.023
    -165.94     0.125
    -164.90     0.071
    -163.87    -0.070
    -162.84    -0.082
    -161.81     0.068
    -160.78     0.010
    -159.75     0.072
    -158.72     0.131
    -157.69     0.260
    -156.66     0.113
    -155.63     0.157
    -154.60     0.003
    -153.57     0.080
    -152.54    -0.134
    -151.51     0.019
    -150.48     0.092
    -149.44    -0.051
    -148.41     0.077
    -147.38    -0.189
    -146.35     0.130
    -145.32    -0.080
    -144.29     0.135
    -143.26     0.064
    -142.23     0.019
    -141.20    -0.136
    -140.17     0.055
    -139.14     0.210
    -138.11     0.206
