%%            109.00000            -2.00000    0             0.12700
% LAB  survey ------------------
% wanted position:  l, b, RA, DEC, and interpolated  NH
%109.00 ;  -2.00 ; 345.91 ;  57.93 ;  0.532E+22
% nearest position: l, b, RA, DEC, and observed NH
%109.00 ;  -2.00 ; 345.91 ;  57.93 ;  0.532E+22
% GASS III survey --------------
% NH - median within 6 arcmin radius   0.00    
% NH - mean within specified beam      0.00    
% EBHIS survey -----------------
% NH  within specified beam           0.548E+22
%%EBHIS   621  datapoints: v_lsr [km/s] and T_B [K]
    -399.25     0.013
    -397.96    -0.049
    -396.68    -0.016
    -395.39     0.136
    -394.10     0.122
    -392.81     0.073
    -391.52     0.017
    -390.23     0.045
    -388.95     0.011
    -387.66    -0.003
    -386.37     0.096
    -385.08     0.048
    -383.79    -0.005
    -382.50    -0.038
    -381.22    -0.129
    -379.93    -0.006
    -378.64     0.066
    -377.35     0.147
    -376.06    -0.042
    -374.78     0.033
    -373.49     0.005
    -372.20     0.022
    -370.91    -0.020
    -369.62     0.069
    -368.33    -0.005
    -367.05    -0.015
    -365.76    -0.072
    -364.47    -0.032
    -363.18    -0.011
    -361.89    -0.086
    -360.60     0.017
    -359.32    -0.024
    -358.03    -0.015
    -356.74    -0.011
    -355.45    -0.002
    -354.16     0.098
    -352.88     0.001
    -351.59     0.087
    -350.30     0.037
    -349.01     0.107
    -347.72     0.011
    -346.43    -0.028
    -345.15     0.024
    -343.86     0.070
    -342.57    -0.088
    -341.28     0.018
    -339.99    -0.095
    -338.70    -0.013
    -337.42    -0.003
    -336.13    -0.116
    -334.84     0.046
    -333.55    -0.051
    -332.26    -0.030
    -330.98    -0.016
    -329.69    -0.079
    -328.40    -0.053
    -327.11     0.052
    -325.82    -0.054
    -324.53     0.018
    -323.25    -0.035
    -321.96    -0.001
    -320.67     0.042
    -319.38    -0.057
    -318.09    -0.047
    -316.80     0.027
    -315.52    -0.010
    -314.23    -0.021
    -312.94    -0.007
    -311.65    -0.042
    -310.36    -0.023
    -309.08     0.034
    -307.79     0.029
    -306.50     0.047
    -305.21     0.048
    -303.92     0.076
    -302.63     0.048
    -301.35     0.002
    -300.06    -0.033
    -298.77     0.058
    -297.48    -0.039
    -296.19    -0.071
    -294.90     0.016
    -293.62    -0.037
    -292.33    -0.100
    -291.04     0.009
    -289.75     0.093
    -288.46     0.035
    -287.18     0.027
    -285.89    -0.009
    -284.60    -0.031
    -283.31    -0.053
    -282.02    -0.038
    -280.73    -0.026
    -279.45     0.042
    -278.16     0.100
    -276.87    -0.025
    -275.58    -0.027
    -274.29     0.009
    -273.00    -0.018
    -271.72     0.151
    -270.43     0.120
    -269.14     0.062
    -267.85     0.040
    -266.56     0.003
    -265.28     0.052
    -263.99     0.065
    -262.70    -0.045
    -261.41    -0.054
    -260.12     0.030
    -258.83     0.012
    -257.55     0.113
    -256.26     0.023
    -254.97    -0.085
    -253.68    -0.026
    -252.39    -0.053
    -251.10    -0.042
    -249.82    -0.076
    -248.53    -0.032
    -247.24     0.060
    -245.95     0.034
    -244.66     0.061
    -243.38     0.051
    -242.09    -0.022
    -240.80    -0.059
    -239.51    -0.014
    -238.22    -0.020
    -236.93     0.005
    -235.65     0.032
    -234.36    -0.007
    -233.07    -0.054
    -231.78     0.022
    -230.49     0.013
    -229.20     0.065
    -227.92     0.059
    -226.63    -0.016
    -225.34    -0.038
    -224.05    -0.070
    -222.76     0.028
    -221.48    -0.020
    -220.19    -0.035
    -218.90     0.016
    -217.61    -0.053
    -216.32    -0.052
    -215.03    -0.016
    -213.75    -0.079
    -212.46    -0.000
    -211.17     0.050
    -209.88     0.045
    -208.59     0.068
    -207.30     0.049
    -206.02    -0.014
    -204.73    -0.009
    -203.44     0.009
    -202.15     0.010
    -200.86     0.099
    -199.58     0.019
    -198.29    -0.001
    -197.00     0.026
    -195.71     0.081
    -194.42     0.049
    -193.13    -0.110
    -191.85     0.073
    -190.56    -0.023
    -189.27    -0.038
    -187.98    -0.012
    -186.69    -0.002
    -185.40     0.003
    -184.12    -0.063
    -182.83     0.034
    -181.54     0.052
    -180.25     0.087
    -178.96     0.039
    -177.68     0.097
    -176.39     0.089
    -175.10     0.024
    -173.81    -0.046
    -172.52     0.019
    -171.23     0.113
    -169.95     0.000
    -168.66    -0.004
    -167.37     0.043
    -166.08     0.140
    -164.79     0.151
    -163.50     0.074
    -162.22     0.037
    -160.93     0.208
    -159.64     0.114
    -158.35     0.094
    -157.06     0.265
    -155.78     0.345
    -154.49     0.433
    -153.20     0.432
    -151.91     0.584
    -150.62     0.611
    -149.33     0.712
    -148.05     0.772
    -146.76     0.907
    -145.47     0.989
    -144.18     0.887
    -142.89     0.776
    -141.60     0.901
    -140.32     0.819
    -139.03     0.885
    -137.74     0.984
    -136.45     0.934
    -135.16     1.046
    -133.88     1.028
    -132.59     1.114
    -131.30     1.136
    -130.01     1.175
    -128.72     1.373
    -127.43     1.704
    -126.15     1.800
    -124.86     1.933
    -123.57     2.124
    -122.28     2.319
    -120.99     2.465
    -119.70     2.616
    -118.42     2.613
    -117.13     2.589
    -115.84     2.684
    -114.55     2.596
    -113.26     2.380
    -111.98     2.211
    -110.69     2.364
    -109.40     2.179
    -108.11     2.044
    -106.82     2.019
    -105.53     1.907
    -104.25     1.890
    -102.96     1.996
    -101.67     1.947
    -100.38     1.984
     -99.09     2.075
     -97.80     2.144
     -96.52     2.200
     -95.23     2.294
     -93.94     2.322
     -92.65     2.417
     -91.36     2.465
     -90.08     2.460
     -88.79     2.574
     -87.50     2.486
     -86.21     2.709
     -84.92     2.834
     -83.63     2.998
     -82.35     3.374
     -81.06     3.898
     -79.77     4.619
     -78.48     5.429
     -77.19     6.360
     -75.90     7.564
     -74.62     8.849
     -73.33    10.097
     -72.04    11.249
     -70.75    12.272
     -69.46    13.373
     -68.18    14.275
     -66.89    15.209
     -65.60    16.356
     -64.31    17.900
     -63.02    20.660
     -61.73    24.825
     -60.45    29.386
     -59.16    32.682
     -57.87    33.601
     -56.58    32.410
     -55.29    32.855
     -54.00    37.391
     -52.72    44.813
     -51.43    53.204
     -50.14    62.983
     -48.85    73.476
     -47.56    83.910
     -46.28    87.676
     -44.99    83.595
     -43.70    77.693
     -42.41    67.929
     -41.12    56.008
     -39.83    46.092
     -38.55    40.487
     -37.26    38.124
     -35.97    35.343
     -34.68    28.728
     -33.39    21.118
     -32.10    15.310
     -30.82    11.092
     -29.53     8.415
     -28.24     6.976
     -26.95     6.022
     -25.66     5.233
     -24.38     5.146
     -23.09     5.059
     -21.80     5.338
     -20.51     6.444
     -19.22     8.761
     -17.93    12.032
     -16.65    15.878
     -15.36    20.954
     -14.07    26.975
     -12.78    33.425
     -11.49    39.678
     -10.20    42.739
      -8.92    42.746
      -7.63    44.081
      -6.34    50.218
      -5.05    60.195
      -3.76    69.262
      -2.48    74.333
      -1.19    72.287
       0.10    63.385
       1.39    51.923
       2.68    40.036
       3.97    28.399
       5.25    18.293
       6.54    11.601
       7.83     7.848
       9.12     5.794
      10.41     4.417
      11.70     3.480
      12.98     2.899
      14.27     2.208
      15.56     1.817
      16.85     1.444
      18.14     1.183
      19.42     1.025
      20.71     0.865
      22.00     0.644
      23.29     0.343
      24.58     0.338
      25.87     0.174
      27.15     0.117
      28.44     0.192
      29.73     0.177
      31.02     0.171
      32.31     0.175
      33.60     0.095
      34.88     0.075
      36.17     0.057
      37.46    -0.135
      38.75    -0.083
      40.04     0.094
      41.32    -0.024
      42.61     0.046
      43.90     0.038
      45.19    -0.028
      46.48     0.063
      47.77    -0.133
      49.05     0.033
      50.34    -0.085
      51.63    -0.099
      52.92    -0.024
      54.21    -0.020
      55.50     0.028
      56.78     0.059
      58.07    -0.068
      59.36    -0.009
      60.65    -0.019
      61.94    -0.059
      63.22    -0.024
      64.51     0.033
      65.80    -0.039
      67.09    -0.073
      68.38    -0.001
      69.67    -0.032
      70.95     0.001
      72.24    -0.001
      73.53     0.057
      74.82    -0.001
      76.11     0.071
      77.40     0.211
      78.68     0.074
      79.97    -0.046
      81.26    -0.046
      82.55     0.023
      83.84    -0.020
      85.12    -0.034
      86.41    -0.040
      87.70    -0.002
      88.99    -0.063
      90.28    -0.048
      91.57    -0.067
      92.85    -0.001
      94.14     0.008
      95.43     0.106
      96.72    -0.091
      98.01     0.013
      99.30     0.069
     100.58     0.009
     101.87    -0.023
     103.16     0.016
     104.45     0.197
     105.74     0.155
     107.02    -0.051
     108.31    -0.010
     109.60     0.073
     110.89     0.019
     112.18    -0.049
     113.47    -0.002
     114.75     0.040
     116.04    -0.008
     117.33    -0.053
     118.62    -0.162
     119.91    -0.026
     121.20     0.057
     122.48    -0.054
     123.77    -0.035
     125.06     0.016
     126.35     0.027
     127.64     0.018
     128.92     0.018
     130.21     0.034
     131.50    -0.060
     132.79     0.021
     134.08     0.070
     135.37     0.019
     136.65    -0.099
     137.94    -0.058
     139.23     0.022
     140.52     0.071
     141.81     0.033
     143.09     0.048
     144.38    -0.033
     145.67    -0.053
     146.96    -0.085
     148.25    -0.079
     149.54     0.000
     150.82     0.042
     152.11     0.018
     153.40     0.067
     154.69    -0.058
     155.98     0.009
     157.27     0.029
     158.55    -0.007
     159.84    -0.083
     161.13    -0.049
     162.42     0.014
     163.71    -0.074
     164.99    -0.056
     166.28     0.046
     167.57     0.031
     168.86    -0.056
     170.15    -0.021
     171.44    -0.053
     172.72    -0.150
     174.01    -0.043
     175.30     0.038
     176.59     0.053
     177.88    -0.002
     179.17    -0.016
     180.45     0.085
     181.74     0.038
     183.03    -0.119
     184.32     0.093
     185.61     0.096
     186.89    -0.013
     188.18    -0.118
     189.47    -0.069
     190.76     0.041
     192.05    -0.028
     193.34    -0.052
     194.62    -0.023
     195.91    -0.054
     197.20     0.064
     198.49     0.056
     199.78     0.042
     201.07    -0.018
     202.35     0.062
     203.64    -0.078
     204.93    -0.031
     206.22     0.088
     207.51    -0.041
     208.79     0.036
     210.08    -0.026
     211.37     0.067
     212.66     0.026
     213.95    -0.000
     215.24    -0.006
     216.52    -0.022
     217.81     0.088
     219.10    -0.026
     220.39    -0.002
     221.68     0.097
     222.97     0.067
     224.25    -0.017
     225.54     0.061
     226.83    -0.004
     228.12     0.041
     229.41     0.070
     230.69     0.020
     231.98    -0.095
     233.27    -0.113
     234.56    -0.107
     235.85    -0.050
     237.14    -0.066
     238.42    -0.043
     239.71     0.023
     241.00     0.002
     242.29     0.019
     243.58     0.031
     244.87     0.123
     246.15     0.131
     247.44    -0.028
     248.73    -0.022
     250.02     0.027
     251.31     0.045
     252.59    -0.021
     253.88     0.007
     255.17    -0.020
     256.46     0.014
     257.75    -0.013
     259.04     0.056
     260.32     0.144
     261.61     0.059
     262.90     0.079
     264.19     0.092
     265.48     0.015
     266.77     0.036
     268.05    -0.018
     269.34     0.069
     270.63     0.029
     271.92    -0.010
     273.21     0.091
     274.49     0.017
     275.78     0.010
     277.07     0.009
     278.36    -0.006
     279.65    -0.059
     280.94     0.014
     282.22    -0.052
     283.51    -0.001
     284.80    -0.132
     286.09    -0.062
     287.38    -0.009
     288.67    -0.063
     289.95    -0.067
     291.24    -0.044
     292.53    -0.033
     293.82     0.018
     295.11     0.101
     296.39    -0.029
     297.68    -0.073
     298.97    -0.106
     300.26    -0.025
     301.55     0.028
     302.84     0.106
     304.12    -0.080
     305.41    -0.045
     306.70     0.077
     307.99    -0.026
     309.28    -0.093
     310.57    -0.002
     311.85     0.076
     313.14     0.037
     314.43    -0.070
     315.72    -0.122
     317.01    -0.137
     318.29     0.040
     319.58     0.109
     320.87    -0.040
     322.16     0.010
     323.45    -0.072
     324.74     0.070
     326.02     0.161
     327.31     0.083
     328.60     0.019
     329.89    -0.036
     331.18     0.023
     332.47     0.057
     333.75     0.070
     335.04     0.073
     336.33    -0.006
     337.62     0.074
     338.91    -0.078
     340.19     0.042
     341.48     0.057
     342.77    -0.080
     344.06    -0.074
     345.35    -0.029
     346.64     0.014
     347.92     0.084
     349.21     0.093
     350.50     0.030
     351.79    -0.028
     353.08     0.004
     354.37    -0.095
     355.65    -0.144
     356.94    -0.053
     358.23    -0.033
     359.52     0.034
     360.81     0.081
     362.09     0.081
     363.38    -0.037
     364.67     0.023
     365.96    -0.009
     367.25    -0.049
     368.54    -0.031
     369.82     0.039
     371.11    -0.043
     372.40     0.014
     373.69     0.037
     374.98     0.061
     376.27     0.049
     377.55     0.075
     378.84     0.012
     380.13     0.045
     381.42    -0.086
     382.71    -0.007
     383.99    -0.054
     385.28    -0.025
     386.57     0.062
     387.86     0.037
     389.15    -0.006
     390.44     0.017
     391.72     0.105
     393.01    -0.082
     394.30    -0.103
     395.59    -0.066
     396.88     0.064
     398.17     0.004
     399.45     0.118
%%GASS      0  datapoints: v_lsr [km/s] and T_B [K] for beam weighted average and median within 6 arcmin
%%LAB     777  datapoints: v_lsr [km/s] and T_B [K]
    -399.85    -0.029
    -398.82    -0.042
    -397.79     0.052
    -396.76    -0.119
    -395.73    -0.013
    -394.69    -0.038
    -393.66     0.018
    -392.63     0.018
    -391.60    -0.081
    -390.57    -0.046
    -389.54    -0.003
    -388.51    -0.024
    -387.48     0.222
    -386.45     0.030
    -385.42     0.158
    -384.39    -0.032
    -383.36     0.021
    -382.33    -0.148
    -381.30    -0.118
    -380.27    -0.053
    -379.24    -0.048
    -378.21     0.043
    -377.18     0.085
    -376.15    -0.167
    -375.11    -0.000
    -374.08    -0.082
    -373.05    -0.068
    -372.02    -0.124
    -370.99    -0.076
    -369.96     0.093
    -368.93    -0.044
    -367.90     0.088
    -366.87    -0.013
    -365.84    -0.230
    -364.81     0.145
    -363.78    -0.172
    -362.75    -0.061
    -361.72    -0.013
    -360.69     0.145
    -359.66    -0.076
    -358.63    -0.105
    -357.60     0.045
    -356.57     0.015
    -355.53    -0.076
    -354.50     0.173
    -353.47     0.042
    -352.44     0.002
    -351.41     0.002
    -350.38     0.018
    -349.35     0.072
    -348.32     0.026
    -347.29     0.029
    -346.26    -0.057
    -345.23    -0.042
    -344.20    -0.210
    -343.17     0.023
    -342.14     0.052
    -341.11     0.032
    -340.08     0.155
    -339.05     0.150
    -338.02    -0.028
    -336.98    -0.068
    -335.95    -0.072
    -334.92    -0.086
    -333.89    -0.164
    -332.86    -0.101
    -331.83     0.091
    -330.80    -0.091
    -329.77    -0.029
    -328.74     0.037
    -327.71     0.107
    -326.68    -0.109
    -325.65     0.009
    -324.62     0.015
    -323.59     0.018
    -322.56    -0.073
    -321.53     0.144
    -320.50     0.063
    -319.47     0.082
    -318.44    -0.027
    -317.40     0.054
    -316.37    -0.056
    -315.34    -0.014
    -314.31     0.025
    -313.28     0.140
    -312.25    -0.104
    -311.22     0.008
    -310.19    -0.102
    -309.16     0.063
    -308.13    -0.086
    -307.10     0.067
    -306.07    -0.062
    -305.04     0.090
    -304.01     0.091
    -302.98    -0.097
    -301.95     0.064
    -300.92     0.057
    -299.89     0.006
    -298.86     0.076
    -297.82    -0.140
    -296.79     0.095
    -295.76    -0.121
    -294.73     0.139
    -293.70     0.071
    -292.67    -0.004
    -291.64    -0.013
    -290.61    -0.104
    -289.58    -0.001
    -288.55    -0.023
    -287.52     0.121
    -286.49     0.123
    -285.46    -0.025
    -284.43     0.056
    -283.40     0.009
    -282.37     0.062
    -281.34    -0.059
    -280.31     0.056
    -279.28    -0.065
    -278.24    -0.042
    -277.21    -0.008
    -276.18     0.114
    -275.15    -0.119
    -274.12     0.009
    -273.09     0.174
    -272.06     0.006
    -271.03    -0.058
    -270.00    -0.037
    -268.97     0.062
    -267.94     0.016
    -266.91    -0.005
    -265.88     0.085
    -264.85    -0.096
    -263.82     0.187
    -262.79    -0.025
    -261.76    -0.154
    -260.73     0.104
    -259.69     0.061
    -258.66    -0.028
    -257.63     0.172
    -256.60    -0.066
    -255.57     0.063
    -254.54    -0.167
    -253.51     0.021
    -252.48     0.010
    -251.45    -0.150
    -250.42    -0.101
    -249.39     0.082
    -248.36    -0.020
    -247.33    -0.009
    -246.30     0.236
    -245.27     0.078
    -244.24    -0.081
    -243.21     0.158
    -242.18     0.038
    -241.15     0.102
    -240.11    -0.011
    -239.08    -0.042
    -238.05     0.059
    -237.02    -0.067
    -235.99    -0.081
    -234.96     0.088
    -233.93     0.020
    -232.90     0.150
    -231.87     0.116
    -230.84    -0.022
    -229.81     0.049
    -228.78    -0.124
    -227.75     0.063
    -226.72     0.013
    -225.69    -0.182
    -224.66     0.133
    -223.63     0.112
    -222.60     0.221
    -221.57     0.026
    -220.53    -0.011
    -219.50     0.002
    -218.47    -0.073
    -217.44     0.067
    -216.41     0.010
    -215.38     0.001
    -214.35    -0.104
    -213.32    -0.089
    -212.29     0.149
    -211.26    -0.024
    -210.23     0.032
    -209.20    -0.167
    -208.17     0.026
    -207.14    -0.066
    -206.11    -0.010
    -205.08    -0.013
    -204.05    -0.054
    -203.02     0.072
    -201.98     0.077
    -200.95    -0.004
    -199.92     0.049
    -198.89    -0.210
    -197.86     0.035
    -196.83     0.030
    -195.80    -0.086
    -194.77    -0.166
    -193.74     0.032
    -192.71     0.049
    -191.68    -0.023
    -190.65    -0.049
    -189.62     0.200
    -188.59    -0.157
    -187.56     0.155
    -186.53    -0.023
    -185.50     0.125
    -184.47     0.038
    -183.44     0.011
    -182.40    -0.078
    -181.37     0.023
    -180.34     0.034
    -179.31     0.193
    -178.28    -0.030
    -177.25     0.048
    -176.22     0.039
    -175.19     0.080
    -174.16    -0.097
    -173.13     0.033
    -172.10     0.069
    -171.07     0.005
    -170.04     0.008
    -169.01     0.138
    -167.98     0.029
    -166.95     0.001
    -165.92     0.034
    -164.89     0.061
    -163.86    -0.094
    -162.82     0.033
    -161.79     0.101
    -160.76     0.249
    -159.73     0.181
    -158.70     0.174
    -157.67     0.206
    -156.64     0.219
    -155.61     0.207
    -154.58     0.557
    -153.55     0.340
    -152.52     0.603
    -151.49     0.528
    -150.46     0.638
    -149.43     0.778
    -148.40     0.845
    -147.37     0.962
    -146.34     1.015
    -145.31     1.146
    -144.27     1.146
    -143.24     1.134
    -142.21     1.364
    -141.18     1.021
    -140.15     0.962
    -139.12     0.821
    -138.09     0.969
