%%            109.00000            -1.00000    0             0.12700
% LAB  survey ------------------
% wanted position:  l, b, RA, DEC, and interpolated  NH
%109.00 ;  -1.00 ; 345.13 ;  58.84 ;  0.631E+22
% nearest position: l, b, RA, DEC, and observed NH
%109.00 ;  -1.00 ; 345.13 ;  58.84 ;  0.631E+22
% GASS III survey --------------
% NH - median within 6 arcmin radius   0.00    
% NH - mean within specified beam      0.00    
% EBHIS survey -----------------
% NH  within specified beam           0.626E+22
%%EBHIS   621  datapoints: v_lsr [km/s] and T_B [K]
    -399.25     0.011
    -397.96    -0.069
    -396.68    -0.156
    -395.39    -0.170
    -394.10    -0.173
    -392.81    -0.139
    -391.52    -0.047
    -390.23     0.058
    -388.95    -0.010
    -387.66     0.108
    -386.37     0.090
    -385.08     0.007
    -383.79    -0.071
    -382.50    -0.117
    -381.22    -0.104
    -379.93    -0.015
    -378.64    -0.018
    -377.35     0.078
    -376.06     0.108
    -374.78    -0.018
    -373.49    -0.033
    -372.20     0.013
    -370.91     0.104
    -369.62    -0.113
    -368.33     0.095
    -367.05     0.091
    -365.76     0.162
    -364.47     0.100
    -363.18     0.236
    -361.89     0.047
    -360.60    -0.031
    -359.32    -0.124
    -358.03    -0.051
    -356.74     0.082
    -355.45     0.156
    -354.16     0.102
    -352.88     0.074
    -351.59    -0.098
    -350.30    -0.075
    -349.01    -0.095
    -347.72    -0.052
    -346.43     0.019
    -345.15     0.020
    -343.86     0.001
    -342.57     0.053
    -341.28    -0.115
    -339.99    -0.054
    -338.70     0.062
    -337.42    -0.080
    -336.13    -0.087
    -334.84    -0.011
    -333.55     0.126
    -332.26    -0.020
    -330.98     0.086
    -329.69     0.032
    -328.40    -0.121
    -327.11    -0.029
    -325.82    -0.034
    -324.53     0.120
    -323.25     0.029
    -321.96    -0.094
    -320.67     0.034
    -319.38    -0.019
    -318.09    -0.003
    -316.80    -0.083
    -315.52     0.002
    -314.23     0.129
    -312.94    -0.071
    -311.65     0.041
    -310.36    -0.084
    -309.08    -0.016
    -307.79    -0.063
    -306.50     0.081
    -305.21     0.039
    -303.92    -0.102
    -302.63    -0.032
    -301.35    -0.015
    -300.06    -0.097
    -298.77    -0.012
    -297.48    -0.123
    -296.19     0.016
    -294.90     0.109
    -293.62     0.122
    -292.33    -0.005
    -291.04     0.020
    -289.75    -0.024
    -288.46    -0.039
    -287.18    -0.095
    -285.89    -0.085
    -284.60    -0.062
    -283.31    -0.061
    -282.02    -0.111
    -280.73    -0.034
    -279.45     0.003
    -278.16     0.002
    -276.87    -0.023
    -275.58    -0.014
    -274.29     0.041
    -273.00     0.035
    -271.72     0.070
    -270.43     0.150
    -269.14     0.152
    -267.85    -0.068
    -266.56    -0.054
    -265.28    -0.037
    -263.99    -0.038
    -262.70     0.024
    -261.41    -0.090
    -260.12    -0.037
    -258.83    -0.083
    -257.55    -0.052
    -256.26     0.038
    -254.97     0.009
    -253.68     0.131
    -252.39     0.140
    -251.10     0.093
    -249.82     0.061
    -248.53    -0.043
    -247.24     0.047
    -245.95     0.076
    -244.66     0.184
    -243.38    -0.076
    -242.09    -0.043
    -240.80    -0.005
    -239.51     0.009
    -238.22     0.056
    -236.93     0.011
    -235.65     0.016
    -234.36    -0.028
    -233.07     0.005
    -231.78     0.014
    -230.49    -0.008
    -229.20     0.121
    -227.92     0.167
    -226.63    -0.013
    -225.34     0.005
    -224.05    -0.054
    -222.76    -0.081
    -221.48    -0.120
    -220.19    -0.002
    -218.90     0.012
    -217.61     0.002
    -216.32    -0.037
    -215.03    -0.054
    -213.75     0.008
    -212.46    -0.030
    -211.17    -0.040
    -209.88    -0.026
    -208.59    -0.048
    -207.30    -0.071
    -206.02    -0.150
    -204.73     0.070
    -203.44     0.095
    -202.15     0.051
    -200.86    -0.002
    -199.58    -0.021
    -198.29    -0.053
    -197.00     0.074
    -195.71     0.027
    -194.42     0.050
    -193.13     0.160
    -191.85    -0.035
    -190.56    -0.051
    -189.27     0.074
    -187.98     0.000
    -186.69    -0.009
    -185.40    -0.101
    -184.12     0.112
    -182.83     0.079
    -181.54     0.020
    -180.25     0.025
    -178.96    -0.009
    -177.68     0.016
    -176.39     0.039
    -175.10     0.059
    -173.81    -0.047
    -172.52    -0.086
    -171.23     0.016
    -169.95    -0.014
    -168.66     0.081
    -167.37     0.128
    -166.08    -0.038
    -164.79    -0.091
    -163.50     0.029
    -162.22     0.062
    -160.93     0.190
    -159.64     0.134
    -158.35     0.223
    -157.06     0.201
    -155.78     0.214
    -154.49     0.138
    -153.20     0.286
    -151.91     0.315
    -150.62     0.270
    -149.33     0.286
    -148.05     0.371
    -146.76     0.321
    -145.47     0.396
    -144.18     0.516
    -142.89     0.500
    -141.60     0.479
    -140.32     0.422
    -139.03     0.708
    -137.74     0.735
    -136.45     0.677
    -135.16     0.586
    -133.88     0.712
    -132.59     0.903
    -131.30     0.894
    -130.01     1.075
    -128.72     1.161
    -127.43     1.178
    -126.15     1.374
    -124.86     1.351
    -123.57     1.645
    -122.28     1.910
    -120.99     2.105
    -119.70     2.285
    -118.42     2.549
    -117.13     2.897
    -115.84     3.157
    -114.55     3.289
    -113.26     3.494
    -111.98     3.705
    -110.69     3.798
    -109.40     4.085
    -108.11     4.199
    -106.82     4.256
    -105.53     4.060
    -104.25     3.960
    -102.96     3.830
    -101.67     3.824
    -100.38     3.756
     -99.09     4.051
     -97.80     4.164
     -96.52     4.201
     -95.23     4.242
     -93.94     3.936
     -92.65     3.924
     -91.36     3.691
     -90.08     3.703
     -88.79     3.711
     -87.50     3.803
     -86.21     4.174
     -84.92     4.628
     -83.63     5.190
     -82.35     6.028
     -81.06     6.958
     -79.77     8.015
     -78.48     8.980
     -77.19     9.427
     -75.90     9.990
     -74.62    10.422
     -73.33    11.122
     -72.04    12.015
     -70.75    13.170
     -69.46    14.535
     -68.18    15.875
     -66.89    16.810
     -65.60    17.621
     -64.31    18.622
     -63.02    20.064
     -61.73    23.434
     -60.45    29.197
     -59.16    36.450
     -57.87    44.537
     -56.58    53.873
     -55.29    64.481
     -54.00    73.574
     -52.72    79.772
     -51.43    86.402
     -50.14    90.227
     -48.85    90.930
     -47.56    88.345
     -46.28    83.495
     -44.99    78.094
     -43.70    71.186
     -42.41    64.423
     -41.12    58.802
     -39.83    52.301
     -38.55    45.329
     -37.26    39.288
     -35.97    34.034
     -34.68    29.767
     -33.39    27.291
     -32.10    25.178
     -30.82    21.226
     -29.53    16.213
     -28.24    12.269
     -26.95     9.715
     -25.66     8.244
     -24.38     7.231
     -23.09     6.818
     -21.80     6.730
     -20.51     7.024
     -19.22     7.610
     -17.93     8.968
     -16.65    11.379
     -15.36    14.827
     -14.07    19.159
     -12.78    25.033
     -11.49    32.655
     -10.20    41.027
      -8.92    49.158
      -7.63    57.978
      -6.34    66.129
      -5.05    69.498
      -3.76    67.524
      -2.48    65.767
      -1.19    65.501
       0.10    60.942
       1.39    49.347
       2.68    38.147
       3.97    29.340
       5.25    22.477
       6.54    17.086
       7.83    12.523
       9.12     8.768
      10.41     6.203
      11.70     4.529
      12.98     3.572
      14.27     2.730
      15.56     2.083
      16.85     1.537
      18.14     1.146
      19.42     0.872
      20.71     0.601
      22.00     0.413
      23.29     0.276
      24.58     0.337
      25.87     0.107
      27.15     0.150
      28.44     0.156
      29.73     0.046
      31.02     0.005
      32.31    -0.009
      33.60     0.123
      34.88     0.035
      36.17     0.044
      37.46     0.041
      38.75     0.059
      40.04    -0.069
      41.32     0.009
      42.61     0.007
      43.90     0.061
      45.19    -0.121
      46.48    -0.056
      47.77    -0.049
      49.05    -0.011
      50.34     0.092
      51.63     0.033
      52.92    -0.005
      54.21    -0.115
      55.50    -0.037
      56.78    -0.021
      58.07    -0.091
      59.36    -0.116
      60.65     0.022
      61.94    -0.043
      63.22     0.078
      64.51    -0.140
      65.80    -0.027
      67.09     0.087
      68.38     0.036
      69.67    -0.029
      70.95    -0.100
      72.24     0.008
      73.53    -0.007
      74.82     0.009
      76.11     0.056
      77.40    -0.018
      78.68     0.107
      79.97     0.060
      81.26    -0.038
      82.55     0.055
      83.84     0.029
      85.12    -0.008
      86.41     0.082
      87.70     0.011
      88.99     0.081
      90.28    -0.079
      91.57     0.051
      92.85     0.092
      94.14     0.100
      95.43     0.035
      96.72    -0.131
      98.01    -0.050
      99.30     0.090
     100.58     0.126
     101.87     0.071
     103.16    -0.001
     104.45    -0.047
     105.74    -0.036
     107.02    -0.124
     108.31    -0.001
     109.60    -0.082
     110.89     0.077
     112.18    -0.013
     113.47    -0.062
     114.75    -0.011
     116.04     0.097
     117.33     0.021
     118.62     0.143
     119.91     0.042
     121.20    -0.084
     122.48    -0.031
     123.77     0.125
     125.06     0.094
     126.35     0.052
     127.64     0.154
     128.92     0.193
     130.21     0.097
     131.50     0.070
     132.79     0.134
     134.08    -0.046
     135.37    -0.039
     136.65     0.033
     137.94     0.195
     139.23     0.003
     140.52     0.036
     141.81     0.037
     143.09    -0.022
     144.38     0.047
     145.67     0.143
     146.96     0.152
     148.25     0.143
     149.54    -0.004
     150.82     0.124
     152.11     0.015
     153.40     0.023
     154.69     0.001
     155.98    -0.110
     157.27    -0.120
     158.55     0.059
     159.84     0.075
     161.13     0.085
     162.42     0.013
     163.71     0.025
     164.99     0.080
     166.28     0.033
     167.57    -0.125
     168.86    -0.025
     170.15     0.093
     171.44     0.203
     172.72     0.064
     174.01    -0.020
     175.30     0.038
     176.59     0.067
     177.88    -0.058
     179.17     0.044
     180.45     0.095
     181.74     0.064
     183.03    -0.060
     184.32    -0.091
     185.61     0.003
     186.89    -0.093
     188.18    -0.114
     189.47    -0.053
     190.76    -0.061
     192.05    -0.079
     193.34    -0.041
     194.62     0.001
     195.91     0.007
     197.20     0.047
     198.49    -0.084
     199.78    -0.082
     201.07    -0.077
     202.35     0.033
     203.64     0.018
     204.93     0.036
     206.22     0.067
     207.51     0.012
     208.79    -0.072
     210.08    -0.068
     211.37    -0.024
     212.66     0.014
     213.95    -0.031
     215.24    -0.065
     216.52    -0.079
     217.81     0.007
     219.10     0.049
     220.39    -0.149
     221.68     0.091
     222.97    -0.015
     224.25    -0.047
     225.54     0.085
     226.83    -0.048
     228.12    -0.011
     229.41     0.037
     230.69     0.013
     231.98     0.140
     233.27    -0.057
     234.56    -0.013
     235.85    -0.002
     237.14     0.025
     238.42     0.066
     239.71    -0.003
     241.00    -0.040
     242.29    -0.121
     243.58     0.018
     244.87     0.068
     246.15    -0.033
     247.44    -0.115
     248.73    -0.056
     250.02     0.005
     251.31     0.096
     252.59     0.072
     253.88     0.051
     255.17    -0.158
     256.46     0.004
     257.75    -0.077
     259.04    -0.042
     260.32     0.069
     261.61     0.025
     262.90     0.003
     264.19     0.045
     265.48    -0.001
     266.77     0.012
     268.05     0.052
     269.34     0.125
     270.63     0.089
     271.92    -0.010
     273.21     0.013
     274.49    -0.068
     275.78    -0.159
     277.07    -0.151
     278.36    -0.078
     279.65     0.004
     280.94     0.009
     282.22     0.017
     283.51     0.067
     284.80     0.025
     286.09    -0.082
     287.38     0.057
     288.67    -0.015
     289.95    -0.007
     291.24     0.007
     292.53     0.008
     293.82     0.017
     295.11    -0.055
     296.39     0.013
     297.68     0.113
     298.97     0.038
     300.26    -0.015
     301.55    -0.038
     302.84     0.031
     304.12    -0.037
     305.41    -0.025
     306.70     0.079
     307.99    -0.072
     309.28    -0.103
     310.57     0.005
     311.85     0.055
     313.14     0.010
     314.43    -0.049
     315.72     0.033
     317.01    -0.081
     318.29    -0.149
     319.58    -0.170
     320.87     0.030
     322.16    -0.039
     323.45    -0.072
     324.74    -0.049
     326.02     0.020
     327.31     0.017
     328.60     0.044
     329.89     0.085
     331.18     0.083
     332.47    -0.008
     333.75     0.041
     335.04     0.056
     336.33     0.103
     337.62     0.117
     338.91    -0.055
     340.19    -0.070
     341.48    -0.134
     342.77    -0.033
     344.06    -0.022
     345.35     0.009
     346.64    -0.053
     347.92    -0.074
     349.21    -0.112
     350.50    -0.028
     351.79     0.021
     353.08     0.040
     354.37     0.029
     355.65    -0.044
     356.94     0.029
     358.23     0.094
     359.52     0.112
     360.81     0.028
     362.09    -0.047
     363.38     0.041
     364.67     0.151
     365.96     0.048
     367.25    -0.122
     368.54     0.044
     369.82     0.036
     371.11    -0.003
     372.40     0.021
     373.69    -0.002
     374.98     0.125
     376.27     0.021
     377.55    -0.070
     378.84    -0.003
     380.13    -0.066
     381.42    -0.035
     382.71     0.081
     383.99     0.111
     385.28     0.067
     386.57    -0.065
     387.86     0.045
     389.15     0.178
     390.44     0.005
     391.72    -0.043
     393.01     0.016
     394.30     0.004
     395.59    -0.006
     396.88    -0.023
     398.17     0.105
     399.45     0.162
%%GASS      0  datapoints: v_lsr [km/s] and T_B [K] for beam weighted average and median within 6 arcmin
%%LAB     777  datapoints: v_lsr [km/s] and T_B [K]
    -399.85     0.081
    -398.82     0.049
    -397.79     0.122
    -396.76     0.041
    -395.73     0.307
    -394.69     0.053
    -393.66    -0.072
    -392.63    -0.044
    -391.60    -0.160
    -390.57    -0.086
    -389.54    -0.022
    -388.51    -0.062
    -387.48    -0.062
    -386.45    -0.124
    -385.42    -0.018
    -384.39     0.011
    -383.36    -0.045
    -382.33     0.031
    -381.30    -0.196
    -380.27    -0.020
    -379.24    -0.037
    -378.21     0.056
    -377.18    -0.062
    -376.15     0.056
    -375.11     0.152
    -374.08    -0.026
    -373.05    -0.087
    -372.02     0.103
    -370.99     0.127
    -369.96     0.018
    -368.93    -0.036
    -367.90    -0.066
    -366.87    -0.065
    -365.84    -0.099
    -364.81     0.056
    -363.78    -0.012
    -362.75     0.003
    -361.72    -0.149
    -360.69     0.174
    -359.66     0.003
    -358.63    -0.018
    -357.60     0.010
    -356.57     0.009
    -355.53    -0.019
    -354.50    -0.051
    -353.47    -0.026
    -352.44    -0.026
    -351.41     0.082
    -350.38    -0.142
    -349.35     0.028
    -348.32     0.135
    -347.29     0.038
    -346.26     0.021
    -345.23    -0.148
    -344.20     0.027
    -343.17    -0.115
    -342.14     0.074
    -341.11     0.057
    -340.08     0.240
    -339.05    -0.048
    -338.02    -0.012
    -336.98    -0.087
    -335.95     0.009
    -334.92     0.038
    -333.89    -0.086
    -332.86    -0.077
    -331.83    -0.099
    -330.80     0.018
    -329.77    -0.098
    -328.74     0.039
    -327.71     0.016
    -326.68     0.225
    -325.65    -0.124
    -324.62     0.042
    -323.59     0.217
    -322.56     0.017
    -321.53    -0.044
    -320.50     0.081
    -319.47     0.088
    -318.44    -0.077
    -317.40     0.009
    -316.37    -0.063
    -315.34    -0.008
    -314.31     0.014
    -313.28     0.031
    -312.25    -0.105
    -311.22     0.075
    -310.19    -0.009
    -309.16    -0.033
    -308.13    -0.117
    -307.10    -0.095
    -306.07     0.106
    -305.04     0.260
    -304.01     0.053
    -302.98    -0.034
    -301.95     0.072
    -300.92    -0.007
    -299.89    -0.038
    -298.86    -0.012
    -297.82     0.131
    -296.79    -0.084
    -295.76     0.082
    -294.73     0.114
    -293.70    -0.174
    -292.67    -0.052
    -291.64    -0.051
    -290.61    -0.008
    -289.58    -0.223
    -288.55     0.064
    -287.52    -0.043
    -286.49     0.165
    -285.46    -0.087
    -284.43    -0.023
    -283.40     0.086
    -282.37     0.268
    -281.34     0.025
    -280.31     0.142
    -279.27     0.000
    -278.24     0.032
    -277.21    -0.104
    -276.18     0.095
    -275.15    -0.170
    -274.12    -0.059
    -273.09     0.129
    -272.06    -0.083
    -271.03     0.081
    -270.00    -0.019
    -268.97    -0.070
    -267.94     0.143
    -266.91    -0.108
    -265.88     0.027
    -264.85     0.052
    -263.82    -0.031
    -262.79    -0.122
    -261.76     0.145
    -260.73    -0.033
    -259.69     0.145
    -258.66     0.095
    -257.63     0.107
    -256.60    -0.084
    -255.57    -0.044
    -254.54    -0.095
    -253.51     0.005
    -252.48     0.005
    -251.45     0.075
    -250.42    -0.088
    -249.39     0.153
    -248.36    -0.198
    -247.33    -0.023
    -246.30     0.107
    -245.27    -0.044
    -244.24    -0.065
    -243.21     0.082
    -242.18    -0.033
    -241.15     0.099
    -240.11    -0.045
    -239.08     0.032
    -238.05     0.078
    -237.02     0.017
    -235.99     0.036
    -234.96     0.007
    -233.93     0.034
    -232.90    -0.026
    -231.87    -0.027
    -230.84     0.006
    -229.81    -0.038
    -228.78    -0.009
    -227.75    -0.092
    -226.72     0.149
    -225.69     0.077
    -224.66    -0.002
    -223.63    -0.073
    -222.60    -0.068
    -221.57    -0.058
    -220.53    -0.147
    -219.50    -0.234
    -218.47    -0.196
    -217.44    -0.158
    -216.41    -0.026
    -215.38    -0.011
    -214.35     0.018
    -213.32    -0.099
    -212.29     0.042
    -211.26     0.124
    -210.23    -0.077
    -209.20    -0.088
    -208.17     0.031
    -207.14     0.052
    -206.11    -0.018
    -205.08    -0.098
    -204.05    -0.004
    -203.02    -0.001
    -201.98     0.056
    -200.95     0.059
    -199.92     0.140
    -198.89     0.160
    -197.86    -0.048
    -196.83    -0.097
    -195.80    -0.033
    -194.77    -0.177
    -193.74    -0.018
    -192.71    -0.066
    -191.68    -0.056
    -190.65     0.049
    -189.62     0.146
    -188.59    -0.015
    -187.56     0.041
    -186.53     0.154
    -185.50     0.249
    -184.47     0.061
    -183.44     0.045
    -182.40     0.088
    -181.37     0.066
    -180.34    -0.018
    -179.31     0.196
    -178.28     0.049
    -177.25     0.161
    -176.22    -0.012
    -175.19    -0.106
    -174.16     0.067
    -173.13     0.129
    -172.10     0.025
    -171.07     0.190
    -170.04    -0.106
    -169.01     0.079
    -167.98     0.059
    -166.95     0.046
    -165.92     0.088
    -164.89     0.111
    -163.86     0.175
    -162.82     0.204
    -161.79     0.079
    -160.76     0.221
    -159.73     0.269
    -158.70     0.280
    -157.67     0.194
    -156.64     0.217
    -155.61     0.188
    -154.58     0.408
    -153.55     0.437
    -152.52     0.319
    -151.49     0.379
    -150.46     0.522
    -149.43     0.391
    -148.40     0.465
    -147.37     0.694
    -146.34     0.452
    -145.31     0.562
    -144.27     0.577
    -143.24     0.680
    -142.21     0.676
    -141.18     0.565
    -140.15     0.563
    -139.12     0.705
    -138.09     0.827
