%%            108.00000             0.00000    0             0.12700
% LAB  survey ------------------
% wanted position:  l, b, RA, DEC, and interpolated  NH
%108.00 ;   0.00 ; 342.54 ;  59.31 ;  0.746E+22
% nearest position: l, b, RA, DEC, and observed NH
%108.00 ;   0.00 ; 342.54 ;  59.31 ;  0.746E+22
% GASS III survey --------------
% NH - median within 6 arcmin radius   0.00    
% NH - mean within specified beam      0.00    
% EBHIS survey -----------------
% NH  within specified beam           0.714E+22
%%EBHIS   621  datapoints: v_lsr [km/s] and T_B [K]
    -399.25     0.034
    -397.96    -0.061
    -396.68    -0.060
    -395.39    -0.023
    -394.10    -0.005
    -392.81     0.144
    -391.52     0.064
    -390.23     0.140
    -388.95     0.017
    -387.66    -0.017
    -386.37     0.022
    -385.08     0.089
    -383.79     0.036
    -382.50     0.136
    -381.22    -0.087
    -379.93     0.076
    -378.64    -0.056
    -377.35    -0.058
    -376.06    -0.046
    -374.78    -0.074
    -373.49    -0.117
    -372.20    -0.068
    -370.91    -0.129
    -369.62    -0.007
    -368.33    -0.090
    -367.05    -0.121
    -365.76    -0.067
    -364.47    -0.071
    -363.18    -0.071
    -361.89     0.018
    -360.60    -0.026
    -359.32    -0.020
    -358.03     0.028
    -356.74    -0.022
    -355.45     0.026
    -354.16     0.041
    -352.88     0.022
    -351.59    -0.033
    -350.30    -0.076
    -349.01    -0.072
    -347.72    -0.008
    -346.43     0.091
    -345.15     0.075
    -343.86    -0.009
    -342.57     0.001
    -341.28    -0.035
    -339.99    -0.069
    -338.70    -0.053
    -337.42     0.004
    -336.13     0.010
    -334.84    -0.091
    -333.55    -0.044
    -332.26     0.055
    -330.98    -0.048
    -329.69     0.064
    -328.40    -0.021
    -327.11    -0.090
    -325.82     0.038
    -324.53     0.055
    -323.25     0.018
    -321.96     0.035
    -320.67     0.057
    -319.38    -0.047
    -318.09    -0.076
    -316.80    -0.023
    -315.52    -0.051
    -314.23     0.002
    -312.94    -0.038
    -311.65    -0.019
    -310.36     0.081
    -309.08     0.114
    -307.79     0.145
    -306.50    -0.034
    -305.21    -0.104
    -303.92    -0.046
    -302.63    -0.087
    -301.35    -0.127
    -300.06     0.016
    -298.77    -0.063
    -297.48     0.038
    -296.19    -0.069
    -294.90    -0.033
    -293.62     0.006
    -292.33     0.007
    -291.04     0.046
    -289.75     0.062
    -288.46     0.016
    -287.18     0.019
    -285.89    -0.026
    -284.60    -0.015
    -283.31     0.030
    -282.02    -0.005
    -280.73     0.032
    -279.45     0.002
    -278.16    -0.020
    -276.87     0.009
    -275.58    -0.002
    -274.29     0.002
    -273.00     0.058
    -271.72     0.111
    -270.43     0.061
    -269.14     0.136
    -267.85     0.049
    -266.56     0.101
    -265.28    -0.015
    -263.99    -0.079
    -262.70     0.014
    -261.41    -0.106
    -260.12    -0.005
    -258.83    -0.006
    -257.55    -0.099
    -256.26    -0.130
    -254.97     0.013
    -253.68    -0.049
    -252.39     0.072
    -251.10     0.105
    -249.82     0.022
    -248.53     0.070
    -247.24     0.058
    -245.95     0.109
    -244.66     0.148
    -243.38     0.070
    -242.09     0.023
    -240.80    -0.084
    -239.51     0.002
    -238.22    -0.000
    -236.93     0.047
    -235.65    -0.040
    -234.36    -0.043
    -233.07     0.027
    -231.78    -0.032
    -230.49     0.023
    -229.20     0.095
    -227.92     0.108
    -226.63    -0.025
    -225.34    -0.077
    -224.05    -0.022
    -222.76     0.044
    -221.48    -0.056
    -220.19     0.002
    -218.90     0.035
    -217.61     0.104
    -216.32    -0.005
    -215.03    -0.017
    -213.75    -0.110
    -212.46     0.020
    -211.17    -0.029
    -209.88     0.029
    -208.59    -0.055
    -207.30     0.066
    -206.02     0.080
    -204.73    -0.067
    -203.44    -0.065
    -202.15    -0.038
    -200.86    -0.112
    -199.58     0.009
    -198.29     0.019
    -197.00    -0.027
    -195.71     0.051
    -194.42     0.033
    -193.13    -0.019
    -191.85    -0.001
    -190.56     0.073
    -189.27     0.015
    -187.98     0.141
    -186.69    -0.057
    -185.40    -0.116
    -184.12    -0.069
    -182.83     0.007
    -181.54    -0.004
    -180.25    -0.017
    -178.96    -0.014
    -177.68    -0.009
    -176.39    -0.014
    -175.10     0.055
    -173.81    -0.008
    -172.52     0.043
    -171.23     0.020
    -169.95     0.105
    -168.66     0.028
    -167.37    -0.019
    -166.08     0.018
    -164.79     0.148
    -163.50     0.126
    -162.22     0.069
    -160.93     0.017
    -159.64     0.022
    -158.35     0.043
    -157.06     0.023
    -155.78     0.086
    -154.49     0.112
    -153.20     0.157
    -151.91     0.080
    -150.62     0.043
    -149.33     0.153
    -148.05     0.262
    -146.76     0.306
    -145.47     0.259
    -144.18     0.231
    -142.89     0.272
    -141.60     0.435
    -140.32     0.442
    -139.03     0.462
    -137.74     0.539
    -136.45     0.495
    -135.16     0.512
    -133.88     0.622
    -132.59     0.692
    -131.30     0.812
    -130.01     0.800
    -128.72     0.929
    -127.43     1.126
    -126.15     1.265
    -124.86     1.386
    -123.57     1.583
    -122.28     1.972
    -120.99     2.463
    -119.70     2.595
    -118.42     2.684
    -117.13     2.767
    -115.84     2.815
    -114.55     2.813
    -113.26     2.944
    -111.98     3.251
    -110.69     3.460
    -109.40     3.541
    -108.11     3.881
    -106.82     4.051
    -105.53     4.545
    -104.25     4.829
    -102.96     5.420
    -101.67     6.150
    -100.38     6.542
     -99.09     6.841
     -97.80     7.329
     -96.52     7.645
     -95.23     7.933
     -93.94     7.741
     -92.65     7.325
     -91.36     6.724
     -90.08     6.481
     -88.79     6.007
     -87.50     5.932
     -86.21     5.594
     -84.92     5.500
     -83.63     5.629
     -82.35     5.944
     -81.06     6.347
     -79.77     7.067
     -78.48     7.926
     -77.19     9.074
     -75.90    10.682
     -74.62    12.745
     -73.33    15.081
     -72.04    17.454
     -70.75    20.746
     -69.46    24.765
     -68.18    23.809
     -66.89    22.109
     -65.60    19.860
     -64.31    23.003
     -63.02    25.262
     -61.73    27.471
     -60.45    32.391
     -59.16    40.862
     -57.87    51.169
     -56.58    61.327
     -55.29    71.618
     -54.00    82.768
     -52.72    92.284
     -51.43   100.147
     -50.14   103.898
     -48.85   101.046
     -47.56    96.770
     -46.28    90.658
     -44.99    78.036
     -43.70    60.031
     -42.41    42.347
     -41.12    29.372
     -39.83    22.044
     -38.55    19.631
     -37.26    22.705
     -35.97    30.370
     -34.68    38.683
     -33.39    43.212
     -32.10    41.513
     -30.82    33.495
     -29.53    25.747
     -28.24    19.707
     -26.95    14.837
     -25.66    11.435
     -24.38     9.577
     -23.09     8.757
     -21.80     8.852
     -20.51    10.012
     -19.22    12.304
     -17.93    15.402
     -16.65    20.344
     -15.36    27.126
     -14.07    37.752
     -12.78    52.954
     -11.49    68.585
     -10.20    77.962
      -8.92    82.959
      -7.63    87.363
      -6.34    84.323
      -5.05    76.169
      -3.76    69.280
      -2.48    66.148
      -1.19    62.494
       0.10    52.654
       1.39    42.329
       2.68    34.569
       3.97    28.492
       5.25    24.334
       6.54    20.531
       7.83    15.817
       9.12    11.893
      10.41     8.609
      11.70     5.997
      12.98     4.009
      14.27     2.654
      15.56     1.772
      16.85     1.326
      18.14     1.025
      19.42     0.671
      20.71     0.367
      22.00     0.302
      23.29     0.154
      24.58     0.148
      25.87     0.116
      27.15     0.073
      28.44    -0.068
      29.73    -0.038
      31.02    -0.049
      32.31    -0.003
      33.60     0.018
      34.88    -0.016
      36.17    -0.079
      37.46    -0.060
      38.75    -0.022
      40.04    -0.050
      41.32    -0.008
      42.61     0.016
      43.90    -0.124
      45.19    -0.082
      46.48     0.015
      47.77    -0.027
      49.05     0.030
      50.34     0.014
      51.63    -0.011
      52.92     0.032
      54.21     0.099
      55.50     0.018
      56.78     0.001
      58.07    -0.093
      59.36    -0.048
      60.65     0.001
      61.94    -0.008
      63.22    -0.040
      64.51    -0.086
      65.80    -0.048
      67.09    -0.112
      68.38     0.095
      69.67     0.022
      70.95    -0.040
      72.24    -0.068
      73.53    -0.023
      74.82     0.015
      76.11    -0.122
      77.40     0.024
      78.68     0.150
      79.97     0.029
      81.26     0.106
      82.55     0.156
      83.84     0.075
      85.12    -0.041
      86.41    -0.066
      87.70    -0.013
      88.99     0.021
      90.28     0.035
      91.57    -0.073
      92.85     0.003
      94.14     0.059
      95.43     0.106
      96.72     0.019
      98.01     0.005
      99.30     0.006
     100.58     0.060
     101.87    -0.114
     103.16    -0.001
     104.45     0.112
     105.74    -0.149
     107.02    -0.002
     108.31    -0.010
     109.60     0.099
     110.89     0.138
     112.18     0.054
     113.47     0.013
     114.75    -0.074
     116.04     0.033
     117.33     0.061
     118.62     0.032
     119.91     0.046
     121.20     0.008
     122.48    -0.088
     123.77    -0.103
     125.06    -0.061
     126.35     0.160
     127.64     0.095
     128.92    -0.022
     130.21     0.120
     131.50     0.104
     132.79     0.025
     134.08    -0.057
     135.37     0.060
     136.65     0.006
     137.94     0.113
     139.23     0.146
     140.52     0.065
     141.81    -0.024
     143.09    -0.037
     144.38    -0.027
     145.67    -0.032
     146.96     0.028
     148.25     0.146
     149.54     0.113
     150.82     0.024
     152.11     0.024
     153.40     0.017
     154.69    -0.039
     155.98     0.005
     157.27     0.108
     158.55     0.022
     159.84     0.190
     161.13     0.084
     162.42     0.095
     163.71     0.042
     164.99    -0.018
     166.28    -0.084
     167.57     0.049
     168.86     0.031
     170.15    -0.124
     171.44    -0.059
     172.72    -0.006
     174.01    -0.070
     175.30     0.053
     176.59     0.010
     177.88    -0.127
     179.17    -0.055
     180.45    -0.133
     181.74    -0.056
     183.03     0.074
     184.32     0.033
     185.61     0.004
     186.89     0.045
     188.18    -0.029
     189.47    -0.091
     190.76     0.020
     192.05    -0.020
     193.34    -0.083
     194.62    -0.009
     195.91    -0.051
     197.20    -0.120
     198.49     0.072
     199.78     0.041
     201.07    -0.040
     202.35    -0.023
     203.64    -0.202
     204.93    -0.030
     206.22     0.045
     207.51    -0.028
     208.79    -0.100
     210.08    -0.184
     211.37    -0.001
     212.66     0.050
     213.95    -0.044
     215.24    -0.138
     216.52     0.061
     217.81     0.083
     219.10     0.014
     220.39    -0.073
     221.68     0.020
     222.97    -0.016
     224.25    -0.061
     225.54     0.015
     226.83     0.000
     228.12    -0.028
     229.41     0.043
     230.69    -0.021
     231.98     0.088
     233.27     0.037
     234.56     0.054
     235.85     0.065
     237.14     0.139
     238.42     0.150
     239.71     0.069
     241.00    -0.012
     242.29    -0.129
     243.58     0.024
     244.87     0.081
     246.15     0.077
     247.44     0.111
     248.73     0.006
     250.02     0.056
     251.31     0.097
     252.59     0.045
     253.88     0.006
     255.17     0.041
     256.46     0.018
     257.75     0.071
     259.04     0.091
     260.32     0.111
     261.61     0.015
     262.90    -0.032
     264.19     0.006
     265.48     0.014
     266.77     0.056
     268.05    -0.040
     269.34    -0.051
     270.63    -0.061
     271.92    -0.172
     273.21    -0.009
     274.49     0.017
     275.78     0.043
     277.07    -0.038
     278.36    -0.161
     279.65    -0.080
     280.94    -0.047
     282.22    -0.093
     283.51    -0.038
     284.80     0.191
     286.09     0.105
     287.38    -0.072
     288.67    -0.109
     289.95     0.025
     291.24    -0.012
     292.53    -0.061
     293.82    -0.121
     295.11    -0.078
     296.39    -0.020
     297.68     0.051
     298.97    -0.058
     300.26    -0.023
     301.55     0.021
     302.84    -0.018
     304.12    -0.085
     305.41    -0.013
     306.70    -0.034
     307.99    -0.076
     309.28     0.063
     310.57    -0.077
     311.85    -0.045
     313.14    -0.007
     314.43     0.005
     315.72     0.072
     317.01    -0.134
     318.29    -0.057
     319.58    -0.012
     320.87     0.097
     322.16     0.026
     323.45     0.014
     324.74    -0.039
     326.02     0.044
     327.31     0.013
     328.60    -0.064
     329.89    -0.077
     331.18    -0.015
     332.47    -0.028
     333.75     0.021
     335.04    -0.042
     336.33     0.025
     337.62     0.064
     338.91     0.010
     340.19     0.045
     341.48     0.025
     342.77    -0.042
     344.06     0.021
     345.35     0.064
     346.64     0.091
     347.92     0.013
     349.21     0.047
     350.50    -0.064
     351.79    -0.013
     353.08     0.010
     354.37     0.018
     355.65     0.035
     356.94     0.068
     358.23     0.030
     359.52    -0.128
     360.81    -0.021
     362.09     0.047
     363.38     0.087
     364.67    -0.099
     365.96     0.060
     367.25     0.065
     368.54     0.084
     369.82     0.108
     371.11     0.109
     372.40    -0.093
     373.69    -0.063
     374.98     0.017
     376.27    -0.099
     377.55    -0.046
     378.84    -0.035
     380.13    -0.007
     381.42     0.035
     382.71    -0.023
     383.99     0.006
     385.28     0.057
     386.57     0.101
     387.86     0.058
     389.15     0.006
     390.44     0.140
     391.72    -0.107
     393.01    -0.039
     394.30    -0.013
     395.59    -0.109
     396.88     0.001
     398.17     0.006
     399.45     0.049
%%GASS      0  datapoints: v_lsr [km/s] and T_B [K] for beam weighted average and median within 6 arcmin
%%LAB     777  datapoints: v_lsr [km/s] and T_B [K]
    -399.87     0.142
    -398.84     0.014
    -397.81     0.086
    -396.78    -0.088
    -395.75     0.075
    -394.71     0.070
    -393.68     0.014
    -392.65    -0.032
    -391.62     0.040
    -390.59    -0.236
    -389.56     0.078
    -388.53     0.089
    -387.50     0.025
    -386.47     0.011
    -385.44     0.044
    -384.41    -0.234
    -383.38    -0.111
    -382.35     0.057
    -381.32     0.091
    -380.29     0.044
    -379.26     0.081
    -378.23    -0.036
    -377.19     0.024
    -376.16     0.054
    -375.13     0.054
    -374.10    -0.093
    -373.07    -0.109
    -372.04    -0.061
    -371.01    -0.020
    -369.98     0.064
    -368.95     0.012
    -367.92    -0.031
    -366.89    -0.055
    -365.86     0.032
    -364.83     0.065
    -363.80    -0.079
    -362.77     0.056
    -361.74    -0.164
    -360.71     0.044
    -359.67     0.069
    -358.64     0.043
    -357.61    -0.053
    -356.58    -0.021
    -355.55    -0.124
    -354.52     0.208
    -353.49     0.001
    -352.46    -0.098
    -351.43    -0.015
    -350.40    -0.040
    -349.37    -0.148
    -348.34     0.062
    -347.31     0.017
    -346.28    -0.092
    -345.25    -0.197
    -344.22    -0.039
    -343.19    -0.068
    -342.15     0.049
    -341.12    -0.127
    -340.09     0.145
    -339.06     0.006
    -338.03     0.081
    -337.00    -0.085
    -335.97     0.027
    -334.94     0.096
    -333.91     0.036
    -332.88    -0.053
    -331.85     0.035
    -330.82     0.117
    -329.79    -0.066
    -328.76     0.078
    -327.73     0.027
    -326.70     0.083
    -325.67    -0.024
    -324.63    -0.103
    -323.60     0.109
    -322.57    -0.050
    -321.54     0.033
    -320.51    -0.218
    -319.48     0.001
    -318.45     0.028
    -317.42     0.019
    -316.39     0.044
    -315.36    -0.060
    -314.33    -0.104
    -313.30     0.041
    -312.27     0.046
    -311.24     0.102
    -310.21    -0.028
    -309.18     0.033
    -308.15     0.120
    -307.11     0.014
    -306.08    -0.028
    -305.05     0.136
    -304.02    -0.077
    -302.99     0.137
    -301.96    -0.048
    -300.93     0.174
    -299.90     0.091
    -298.87     0.003
    -297.84    -0.008
    -296.81     0.080
    -295.78     0.016
    -294.75    -0.005
    -293.72     0.085
    -292.69     0.089
    -291.66    -0.170
    -290.63    -0.063
    -289.59     0.020
    -288.56     0.081
    -287.53    -0.128
    -286.50    -0.056
    -285.47     0.200
    -284.44     0.049
    -283.41    -0.170
    -282.38     0.033
    -281.35    -0.000
    -280.32    -0.039
    -279.29    -0.164
    -278.26     0.011
    -277.23     0.041
    -276.20     0.012
    -275.17    -0.055
    -274.14    -0.050
    -273.11    -0.028
    -272.07     0.053
    -271.04     0.011
    -270.01     0.145
    -268.98     0.072
    -267.95    -0.012
    -266.92     0.020
    -265.89     0.088
    -264.86     0.093
    -263.83     0.025
    -262.80     0.065
    -261.77     0.163
    -260.74    -0.024
    -259.71    -0.004
    -258.68    -0.008
    -257.65     0.035
    -256.62    -0.023
    -255.59     0.134
    -254.55    -0.132
    -253.52     0.096
    -252.49    -0.026
    -251.46    -0.088
    -250.43    -0.010
    -249.40     0.065
    -248.37     0.017
    -247.34    -0.071
    -246.31    -0.042
    -245.28    -0.136
    -244.25    -0.111
    -243.22     0.101
    -242.19     0.049
    -241.16     0.174
    -240.13    -0.044
    -239.10     0.447
    -238.07     0.395
    -237.03     0.027
    -236.00     0.144
    -234.97    -0.108
    -233.94     0.008
    -232.91    -0.023
    -231.88     0.110
    -230.85    -0.031
    -229.82     0.012
    -228.79     0.139
    -227.76     0.091
    -226.73     0.067
    -225.70     0.044
    -224.67     0.101
    -223.64    -0.028
    -222.61    -0.120
    -221.58    -0.055
    -220.55    -0.209
    -219.51     0.003
    -218.48    -0.064
    -217.45     0.075
    -216.42     0.155
    -215.39     0.192
    -214.36    -0.124
    -213.33    -0.021
    -212.30     0.109
    -211.27     0.022
    -210.24     0.044
    -209.21     0.128
    -208.18    -0.004
    -207.15    -0.193
    -206.12    -0.053
    -205.09    -0.020
    -204.06     0.109
    -203.03     0.091
    -201.99     0.094
    -200.96    -0.157
    -199.93    -0.060
    -198.90    -0.040
    -197.87     0.070
    -196.84    -0.122
    -195.81     0.011
    -194.78    -0.053
    -193.75     0.041
    -192.72    -0.023
    -191.69    -0.068
    -190.66    -0.103
    -189.63    -0.007
    -188.60     0.141
    -187.57     0.104
    -186.54     0.001
    -185.51     0.086
    -184.47     0.065
    -183.44    -0.023
    -182.41     0.011
    -181.38    -0.060
    -180.35     0.081
    -179.32     0.064
    -178.29     0.030
    -177.26    -0.117
    -176.23     0.101
    -175.20     0.184
    -174.17     0.136
    -173.14     0.086
    -172.11    -0.154
    -171.08    -0.109
    -170.05     0.014
    -169.02     0.131
    -167.99    -0.018
    -166.95     0.181
    -165.92    -0.016
    -164.89     0.033
    -163.86     0.077
    -162.83     0.232
    -161.80     0.061
    -160.77     0.208
    -159.74     0.129
    -158.71     0.120
    -157.68     0.282
    -156.65     0.094
    -155.62     0.145
    -154.59     0.166
    -153.56     0.049
    -152.53     0.099
    -151.50     0.201
    -150.47     0.304
    -149.43     0.366
    -148.40     0.259
    -147.37     0.190
    -146.34     0.283
    -145.31     0.145
    -144.28     0.346
    -143.25     0.431
    -142.22     0.402
    -141.19     0.387
    -140.16     0.495
    -139.13     0.365
    -138.10     0.567
