%%            110.00000             0.00000    0             0.12700
% LAB  survey ------------------
% wanted position:  l, b, RA, DEC, and interpolated  NH
%110.00 ;   0.00 ; 346.13 ;  60.16 ;  0.669E+22
% nearest position: l, b, RA, DEC, and observed NH
%110.00 ;   0.00 ; 346.13 ;  60.16 ;  0.669E+22
% GASS III survey --------------
% NH - median within 6 arcmin radius   0.00    
% NH - mean within specified beam      0.00    
% EBHIS survey -----------------
% NH  within specified beam           0.671E+22
%%EBHIS   621  datapoints: v_lsr [km/s] and T_B [K]
    -399.25     0.075
    -397.96    -0.101
    -396.68    -0.069
    -395.39    -0.014
    -394.10    -0.040
    -392.81     0.074
    -391.52    -0.088
    -390.23     0.106
    -388.95     0.179
    -387.66     0.083
    -386.37     0.023
    -385.08    -0.013
    -383.79     0.066
    -382.50     0.106
    -381.22     0.063
    -379.93     0.183
    -378.64    -0.078
    -377.35     0.100
    -376.06     0.114
    -374.78    -0.126
    -373.49    -0.027
    -372.20     0.030
    -370.91    -0.004
    -369.62    -0.083
    -368.33     0.007
    -367.05    -0.099
    -365.76     0.096
    -364.47     0.139
    -363.18     0.046
    -361.89    -0.014
    -360.60    -0.121
    -359.32    -0.044
    -358.03     0.072
    -356.74    -0.010
    -355.45    -0.063
    -354.16    -0.116
    -352.88     0.072
    -351.59     0.034
    -350.30    -0.127
    -349.01    -0.138
    -347.72     0.087
    -346.43     0.008
    -345.15    -0.250
    -343.86    -0.069
    -342.57     0.041
    -341.28    -0.010
    -339.99    -0.106
    -338.70    -0.025
    -337.42     0.092
    -336.13     0.055
    -334.84     0.022
    -333.55     0.029
    -332.26     0.055
    -330.98     0.001
    -329.69     0.091
    -328.40     0.115
    -327.11     0.039
    -325.82    -0.021
    -324.53     0.033
    -323.25     0.005
    -321.96     0.003
    -320.67     0.060
    -319.38    -0.096
    -318.09     0.009
    -316.80     0.194
    -315.52     0.158
    -314.23     0.066
    -312.94     0.094
    -311.65     0.082
    -310.36    -0.188
    -309.08    -0.017
    -307.79    -0.183
    -306.50     0.050
    -305.21     0.129
    -303.92     0.123
    -302.63     0.138
    -301.35     0.023
    -300.06    -0.153
    -298.77    -0.182
    -297.48    -0.086
    -296.19     0.038
    -294.90    -0.044
    -293.62    -0.153
    -292.33    -0.067
    -291.04    -0.073
    -289.75    -0.093
    -288.46     0.045
    -287.18     0.157
    -285.89     0.045
    -284.60    -0.054
    -283.31    -0.043
    -282.02    -0.075
    -280.73     0.057
    -279.45    -0.017
    -278.16    -0.069
    -276.87    -0.016
    -275.58     0.009
    -274.29    -0.020
    -273.00    -0.013
    -271.72    -0.025
    -270.43    -0.076
    -269.14    -0.166
    -267.85    -0.023
    -266.56    -0.010
    -265.28    -0.107
    -263.99    -0.095
    -262.70     0.059
    -261.41    -0.035
    -260.12     0.164
    -258.83     0.019
    -257.55     0.092
    -256.26     0.031
    -254.97    -0.053
    -253.68    -0.182
    -252.39    -0.017
    -251.10     0.073
    -249.82     0.045
    -248.53    -0.069
    -247.24     0.103
    -245.95     0.019
    -244.66     0.052
    -243.38    -0.010
    -242.09     0.061
    -240.80    -0.051
    -239.51    -0.065
    -238.22     0.313
    -236.93     0.164
    -235.65     0.000
    -234.36     0.095
    -233.07     0.023
    -231.78    -0.191
    -230.49    -0.043
    -229.20    -0.013
    -227.92    -0.034
    -226.63     0.004
    -225.34     0.041
    -224.05     0.042
    -222.76     0.034
    -221.48    -0.080
    -220.19     0.061
    -218.90    -0.023
    -217.61     0.141
    -216.32     0.070
    -215.03    -0.049
    -213.75    -0.186
    -212.46     0.017
    -211.17     0.019
    -209.88     0.048
    -208.59    -0.039
    -207.30    -0.112
    -206.02    -0.038
    -204.73    -0.135
    -203.44     0.276
    -202.15    -0.010
    -200.86     0.032
    -199.58    -0.051
    -198.29    -0.086
    -197.00    -0.057
    -195.71    -0.035
    -194.42    -0.121
    -193.13    -0.226
    -191.85    -0.207
    -190.56    -0.048
    -189.27    -0.064
    -187.98    -0.199
    -186.69    -0.065
    -185.40     0.020
    -184.12     0.015
    -182.83    -0.095
    -181.54    -0.102
    -180.25    -0.220
    -178.96    -0.322
    -177.68     0.165
    -176.39    -0.134
    -175.10     0.092
    -173.81     0.210
    -172.52     0.007
    -171.23     0.000
    -169.95     0.115
    -168.66    -0.021
    -167.37    -0.034
    -166.08    -0.091
    -164.79     0.123
    -163.50     0.034
    -162.22     0.070
    -160.93    -0.025
    -159.64     0.110
    -158.35     0.050
    -157.06     0.026
    -155.78     0.061
    -154.49     0.158
    -153.20     0.245
    -151.91     0.236
    -150.62     0.202
    -149.33     0.199
    -148.05     0.223
    -146.76     0.267
    -145.47     0.401
    -144.18     0.344
    -142.89     0.367
    -141.60     0.381
    -140.32     0.327
    -139.03     0.329
    -137.74     0.343
    -136.45     0.453
    -135.16     0.319
    -133.88     0.235
    -132.59     0.417
    -131.30     0.462
    -130.01     0.549
    -128.72     0.466
    -127.43     0.851
    -126.15     0.865
    -124.86     0.979
    -123.57     1.101
    -122.28     1.347
    -120.99     1.513
    -119.70     1.845
    -118.42     1.959
    -117.13     2.185
    -115.84     2.484
    -114.55     2.674
    -113.26     3.166
    -111.98     3.578
    -110.69     4.119
    -109.40     4.518
    -108.11     5.396
    -106.82     7.043
    -105.53     9.492
    -104.25    13.740
    -102.96    18.872
    -101.67    22.712
    -100.38    24.677
     -99.09    24.917
     -97.80    24.705
     -96.52    23.388
     -95.23    21.500
     -93.94    19.984
     -92.65    17.194
     -91.36    13.460
     -90.08    11.364
     -88.79    10.635
     -87.50    11.760
     -86.21    13.913
     -84.92    17.150
     -83.63    21.082
     -82.35    24.352
     -81.06    25.333
     -79.77    24.243
     -78.48    21.759
     -77.19    17.712
     -75.90    14.185
     -74.62    12.192
     -73.33    12.003
     -72.04    12.361
     -70.75    13.540
     -69.46    16.937
     -68.18    16.180
     -66.89    15.894
     -65.60    16.003
     -64.31    18.982
     -63.02    24.275
     -61.73    31.043
     -60.45    43.259
     -59.16    56.937
     -57.87    67.316
     -56.58    71.012
     -55.29    68.929
     -54.00    68.782
     -52.72    68.578
     -51.43    69.257
     -50.14    72.035
     -48.85    74.478
     -47.56    74.430
     -46.28    69.460
     -44.99    59.250
     -43.70    49.441
     -42.41    42.287
     -41.12    37.254
     -39.83    30.536
     -38.55    23.062
     -37.26    17.912
     -35.97    14.746
     -34.68    13.575
     -33.39    13.923
     -32.10    14.850
     -30.82    15.188
     -29.53    13.699
     -28.24    12.367
     -26.95    11.462
     -25.66    11.055
     -24.38    10.120
     -23.09     9.644
     -21.80     9.371
     -20.51     9.755
     -19.22    10.639
     -17.93    11.901
     -16.65    14.284
     -15.36    18.063
     -14.07    23.323
     -12.78    29.516
     -11.49    36.805
     -10.20    43.016
      -8.92    48.554
      -7.63    56.391
      -6.34    66.732
      -5.05    77.477
      -3.76    79.945
      -2.48    75.368
      -1.19    73.979
       0.10    69.776
       1.39    55.511
       2.68    40.056
       3.97    27.926
       5.25    19.913
       6.54    14.675
       7.83    10.706
       9.12     7.966
      10.41     6.064
      11.70     4.860
      12.98     3.886
      14.27     3.039
      15.56     2.315
      16.85     1.913
      18.14     1.651
      19.42     1.222
      20.71     0.834
      22.00     0.685
      23.29     0.381
      24.58     0.458
      25.87     0.262
      27.15     0.201
      28.44     0.232
      29.73    -0.077
      31.02     0.104
      32.31    -0.004
      33.60     0.043
      34.88    -0.041
      36.17    -0.108
      37.46    -0.007
      38.75     0.037
      40.04     0.022
      41.32     0.077
      42.61     0.087
      43.90     0.093
      45.19     0.061
      46.48     0.149
      47.77    -0.194
      49.05    -0.092
      50.34     0.027
      51.63     0.128
      52.92    -0.010
      54.21     0.159
      55.50     0.012
      56.78    -0.063
      58.07    -0.086
      59.36     0.051
      60.65     0.115
      61.94    -0.044
      63.22    -0.034
      64.51     0.073
      65.80    -0.092
      67.09    -0.124
      68.38    -0.085
      69.67     0.010
      70.95     0.044
      72.24    -0.042
      73.53    -0.082
      74.82     0.112
      76.11    -0.040
      77.40    -0.091
      78.68     0.103
      79.97     0.095
      81.26     0.158
      82.55    -0.001
      83.84     0.050
      85.12     0.134
      86.41     0.227
      87.70     0.071
      88.99     0.070
      90.28     0.045
      91.57     0.255
      92.85     0.001
      94.14    -0.146
      95.43    -0.027
      96.72     0.075
      98.01    -0.016
      99.30     0.025
     100.58     0.028
     101.87    -0.047
     103.16     0.079
     104.45     0.038
     105.74     0.144
     107.02    -0.039
     108.31     0.006
     109.60     0.063
     110.89     0.033
     112.18     0.032
     113.47     0.011
     114.75    -0.025
     116.04    -0.004
     117.33    -0.049
     118.62    -0.026
     119.91    -0.040
     121.20    -0.016
     122.48    -0.036
     123.77    -0.028
     125.06     0.041
     126.35    -0.008
     127.64     0.003
     128.92    -0.134
     130.21    -0.035
     131.50     0.030
     132.79     0.064
     134.08     0.038
     135.37    -0.015
     136.65     0.000
     137.94     0.086
     139.23     0.041
     140.52     0.023
     141.81     0.062
     143.09    -0.007
     144.38    -0.101
     145.67     0.087
     146.96     0.083
     148.25     0.081
     149.54    -0.054
     150.82    -0.013
     152.11     0.069
     153.40     0.167
     154.69    -0.084
     155.98    -0.003
     157.27    -0.142
     158.55    -0.091
     159.84     0.005
     161.13     0.002
     162.42    -0.090
     163.71     0.062
     164.99    -0.032
     166.28    -0.032
     167.57    -0.108
     168.86    -0.044
     170.15    -0.013
     171.44    -0.106
     172.72    -0.051
     174.01    -0.027
     175.30     0.035
     176.59    -0.101
     177.88     0.076
     179.17     0.038
     180.45     0.180
     181.74     0.180
     183.03     0.313
     184.32     0.048
     185.61     0.010
     186.89    -0.030
     188.18    -0.213
     189.47    -0.073
     190.76    -0.033
     192.05     0.047
     193.34    -0.062
     194.62    -0.092
     195.91     0.102
     197.20     0.085
     198.49     0.054
     199.78     0.178
     201.07     0.064
     202.35    -0.029
     203.64    -0.036
     204.93    -0.091
     206.22     0.012
     207.51     0.079
     208.79    -0.026
     210.08     0.111
     211.37    -0.103
     212.66    -0.004
     213.95     0.011
     215.24    -0.083
     216.52    -0.061
     217.81    -0.237
     219.10    -0.062
     220.39     0.147
     221.68     0.022
     222.97    -0.007
     224.25    -0.005
     225.54     0.156
     226.83     0.154
     228.12     0.071
     229.41     0.018
     230.69    -0.078
     231.98     0.082
     233.27    -0.108
     234.56    -0.046
     235.85    -0.072
     237.14     0.140
     238.42     0.074
     239.71     0.049
     241.00     0.017
     242.29    -0.016
     243.58    -0.077
     244.87     0.062
     246.15     0.122
     247.44     0.079
     248.73     0.092
     250.02     0.092
     251.31     0.073
     252.59     0.134
     253.88     0.046
     255.17     0.198
     256.46    -0.077
     257.75    -0.017
     259.04     0.033
     260.32     0.115
     261.61    -0.098
     262.90     0.000
     264.19    -0.213
     265.48    -0.136
     266.77    -0.026
     268.05    -0.280
     269.34    -0.070
     270.63     0.015
     271.92    -0.003
     273.21    -0.072
     274.49    -0.068
     275.78     0.026
     277.07    -0.119
     278.36     0.150
     279.65    -0.140
     280.94    -0.099
     282.22    -0.004
     283.51    -0.148
     284.80     0.244
     286.09    -0.034
     287.38     0.030
     288.67    -0.129
     289.95    -0.083
     291.24     0.070
     292.53     0.019
     293.82     0.057
     295.11     0.054
     296.39     0.009
     297.68     0.101
     298.97     0.063
     300.26     0.100
     301.55     0.101
     302.84    -0.039
     304.12    -0.004
     305.41    -0.136
     306.70    -0.103
     307.99     0.029
     309.28    -0.040
     310.57    -0.195
     311.85     0.041
     313.14     0.168
     314.43    -0.001
     315.72    -0.090
     317.01     0.015
     318.29    -0.010
     319.58    -0.043
     320.87     0.274
     322.16     0.039
     323.45     0.187
     324.74     0.101
     326.02    -0.004
     327.31    -0.156
     328.60    -0.000
     329.89     0.037
     331.18     0.043
     332.47    -0.126
     333.75     0.124
     335.04     0.087
     336.33    -0.084
     337.62    -0.002
     338.91     0.044
     340.19     0.169
     341.48     0.126
     342.77     0.009
     344.06     0.065
     345.35    -0.038
     346.64    -0.121
     347.92    -0.006
     349.21    -0.101
     350.50     0.046
     351.79     0.196
     353.08    -0.043
     354.37    -0.211
     355.65     0.039
     356.94     0.125
     358.23    -0.031
     359.52     0.006
     360.81    -0.128
     362.09    -0.032
     363.38    -0.060
     364.67     0.097
     365.96    -0.228
     367.25     0.102
     368.54     0.039
     369.82     0.008
     371.11    -0.095
     372.40    -0.112
     373.69    -0.003
     374.98    -0.024
     376.27     0.018
     377.55    -0.001
     378.84     0.064
     380.13     0.063
     381.42     0.042
     382.71    -0.037
     383.99    -0.154
     385.28    -0.079
     386.57     0.006
     387.86    -0.199
     389.15    -0.011
     390.44     0.070
     391.72    -0.019
     393.01     0.039
     394.30     0.199
     395.59    -0.011
     396.88     0.036
     398.17     0.085
     399.45     0.099
%%GASS      0  datapoints: v_lsr [km/s] and T_B [K] for beam weighted average and median within 6 arcmin
%%LAB     777  datapoints: v_lsr [km/s] and T_B [K]
    -399.87     0.202
    -398.84     0.001
    -397.81    -0.012
    -396.78    -0.074
    -395.75    -0.076
    -394.72    -0.028
    -393.68     0.089
    -392.65     0.022
    -391.62    -0.057
    -390.59    -0.115
    -389.56     0.155
    -388.53     0.041
    -387.50     0.062
    -386.47     0.062
    -385.44    -0.085
    -384.41     0.115
    -383.38    -0.025
    -382.35     0.099
    -381.32    -0.152
    -380.29    -0.000
    -379.26     0.041
    -378.23    -0.035
    -377.20    -0.019
    -376.16     0.043
    -375.13    -0.003
    -374.10    -0.019
    -373.07    -0.098
    -372.04    -0.057
    -371.01    -0.005
    -369.98     0.039
    -368.95     0.119
    -367.92     0.063
    -366.89     0.080
    -365.86     0.043
    -364.83    -0.019
    -363.80    -0.059
    -362.77     0.043
    -361.74    -0.098
    -360.71     0.069
    -359.68    -0.303
    -358.64    -0.088
    -357.61     0.011
    -356.58     0.159
    -355.55    -0.137
    -354.52    -0.043
    -353.49     0.077
    -352.46     0.051
    -351.43    -0.025
    -350.40     0.063
    -349.37    -0.045
    -348.34    -0.122
    -347.31     0.027
    -346.28     0.001
    -345.25     0.044
    -344.22     0.114
    -343.19    -0.007
    -342.16    -0.031
    -341.12    -0.066
    -340.09    -0.077
    -339.06    -0.057
    -338.03     0.001
    -337.00    -0.038
    -335.97    -0.106
    -334.94     0.036
    -333.91     0.058
    -332.88    -0.266
    -331.85    -0.002
    -330.82    -0.004
    -329.79    -0.016
    -328.76     0.052
    -327.73     0.340
    -326.70    -0.005
    -325.67     0.116
    -324.64     0.033
    -323.60    -0.004
    -322.57     0.016
    -321.54     0.124
    -320.51     0.059
    -319.48    -0.110
    -318.45     0.077
    -317.42     0.028
    -316.39     0.018
    -315.36     0.064
    -314.33     0.105
    -313.30     0.096
    -312.27     0.085
    -311.24     0.018
    -310.21    -0.098
    -309.18     0.118
    -308.15    -0.005
    -307.12    -0.118
    -306.08    -0.024
    -305.05     0.087
    -304.02    -0.133
    -302.99    -0.149
    -301.96     0.018
    -300.93     0.038
    -299.90     0.047
    -298.87     0.196
    -297.84     0.059
    -296.81     0.006
    -295.78     0.104
    -294.75     0.099
    -293.72    -0.242
    -292.69    -0.137
    -291.66    -0.033
    -290.63    -0.030
    -289.60    -0.074
    -288.56     0.108
    -287.53     0.142
    -286.50     0.003
    -285.47    -0.038
    -284.44    -0.031
    -283.41     0.074
    -282.38     0.029
    -281.35     0.010
    -280.32    -0.014
    -279.29     0.163
    -278.26    -0.065
    -277.23    -0.054
    -276.20     0.190
    -275.17    -0.066
    -274.14    -0.024
    -273.11     0.029
    -272.08     0.106
    -271.04    -0.002
    -270.01    -0.101
    -268.98     0.154
    -267.95    -0.069
    -266.92     0.006
    -265.89     0.151
    -264.86     0.022
    -263.83    -0.003
    -262.80    -0.051
    -261.77     0.047
    -260.74    -0.061
    -259.71    -0.080
    -258.68    -0.061
    -257.65     0.062
    -256.62     0.079
    -255.59    -0.031
    -254.56     0.007
    -253.52    -0.071
    -252.49     0.087
    -251.46    -0.012
    -250.43    -0.002
    -249.40     0.079
    -248.37     0.022
    -247.34     0.095
    -246.31    -0.039
    -245.28     0.015
    -244.25     0.012
    -243.22     0.003
    -242.19     0.028
    -241.16    -0.028
    -240.13    -0.020
    -239.10    -0.010
    -238.07     0.011
    -237.04    -0.045
    -236.00     0.002
    -234.97     0.015
    -233.94     0.008
    -232.91     0.026
    -231.88    -0.008
    -230.85    -0.009
    -229.82     0.110
    -228.79    -0.002
    -227.76     0.101
    -226.73    -0.087
    -225.70     0.070
    -224.67    -0.003
    -223.64    -0.038
    -222.61    -0.030
    -221.58    -0.054
    -220.55    -0.035
    -219.52     0.007
    -218.48    -0.117
    -217.45    -0.007
    -216.42    -0.008
    -215.39     0.131
    -214.36    -0.155
    -213.33    -0.103
    -212.30     0.012
    -211.27    -0.072
    -210.24     0.052
    -209.21    -0.029
    -208.18    -0.133
    -207.15    -0.074
    -206.12     0.015
    -205.09    -0.121
    -204.06     0.094
    -203.03     0.015
    -202.00    -0.020
    -200.96     0.199
    -199.93     0.028
    -198.90     0.090
    -197.87     0.082
    -196.84    -0.040
    -195.81     0.016
    -194.78    -0.047
    -193.75     0.068
    -192.72     0.054
    -191.69     0.104
    -190.66    -0.009
    -189.63    -0.007
    -188.60     0.002
    -187.57    -0.043
    -186.54    -0.043
    -185.51    -0.147
    -184.48    -0.021
    -183.44     0.083
    -182.41    -0.047
    -181.38     0.111
    -180.35     0.022
    -179.32     0.032
    -178.29     0.002
    -177.26     0.021
    -176.23     0.001
    -175.20     0.170
    -174.17    -0.004
    -173.14     0.118
    -172.11     0.048
    -171.08    -0.038
    -170.05     0.126
    -169.02     0.197
    -167.99     0.077
    -166.96     0.146
    -165.92     0.163
    -164.89     0.072
    -163.86     0.228
    -162.83     0.106
    -161.80     0.125
    -160.77     0.090
    -159.74     0.046
    -158.71     0.113
    -157.68     0.087
    -156.65     0.206
    -155.62     0.223
    -154.59     0.209
    -153.56     0.157
    -152.53     0.280
    -151.50     0.276
    -150.47     0.324
    -149.44     0.170
    -148.40     0.196
    -147.37     0.228
    -146.34     0.306
    -145.31     0.151
    -144.28     0.270
    -143.25     0.196
    -142.22     0.432
    -141.19     0.347
    -140.16     0.053
    -139.13     0.305
    -138.10     0.209
