%%            110.00000            -1.00000    0             0.12700
% LAB  survey ------------------
% wanted position:  l, b, RA, DEC, and interpolated  NH
%110.00 ;  -1.00 ; 346.91 ;  59.24 ;  0.670E+22
% nearest position: l, b, RA, DEC, and observed NH
%110.00 ;  -1.00 ; 346.91 ;  59.24 ;  0.670E+22
% GASS III survey --------------
% NH - median within 6 arcmin radius   0.00    
% NH - mean within specified beam      0.00    
% EBHIS survey -----------------
% NH  within specified beam           0.678E+22
%%EBHIS   621  datapoints: v_lsr [km/s] and T_B [K]
    -399.25    -0.030
    -397.96    -0.056
    -396.68     0.005
    -395.39     0.016
    -394.10     0.011
    -392.81    -0.050
    -391.52     0.029
    -390.23    -0.078
    -388.95     0.021
    -387.66     0.011
    -386.37    -0.052
    -385.08     0.040
    -383.79     0.082
    -382.50     0.145
    -381.22     0.077
    -379.93    -0.010
    -378.64    -0.003
    -377.35    -0.024
    -376.06    -0.023
    -374.78    -0.048
    -373.49     0.055
    -372.20     0.031
    -370.91    -0.029
    -369.62     0.011
    -368.33    -0.005
    -367.05     0.100
    -365.76     0.036
    -364.47     0.027
    -363.18     0.046
    -361.89     0.035
    -360.60     0.005
    -359.32     0.023
    -358.03    -0.026
    -356.74    -0.002
    -355.45    -0.017
    -354.16    -0.013
    -352.88    -0.056
    -351.59     0.019
    -350.30     0.087
    -349.01    -0.062
    -347.72    -0.064
    -346.43     0.056
    -345.15     0.090
    -343.86    -0.066
    -342.57     0.045
    -341.28    -0.087
    -339.99    -0.124
    -338.70    -0.024
    -337.42     0.020
    -336.13     0.048
    -334.84    -0.010
    -333.55    -0.011
    -332.26     0.062
    -330.98    -0.088
    -329.69    -0.098
    -328.40    -0.023
    -327.11     0.011
    -325.82    -0.092
    -324.53     0.008
    -323.25    -0.069
    -321.96    -0.128
    -320.67    -0.038
    -319.38    -0.080
    -318.09     0.043
    -316.80     0.090
    -315.52     0.019
    -314.23     0.002
    -312.94     0.060
    -311.65     0.004
    -310.36    -0.080
    -309.08    -0.127
    -307.79    -0.046
    -306.50    -0.053
    -305.21     0.030
    -303.92     0.032
    -302.63     0.001
    -301.35     0.025
    -300.06     0.034
    -298.77    -0.040
    -297.48     0.103
    -296.19     0.001
    -294.90     0.040
    -293.62    -0.017
    -292.33     0.054
    -291.04    -0.065
    -289.75     0.072
    -288.46     0.055
    -287.18     0.051
    -285.89    -0.016
    -284.60     0.007
    -283.31     0.046
    -282.02    -0.030
    -280.73     0.002
    -279.45     0.076
    -278.16    -0.034
    -276.87     0.027
    -275.58    -0.126
    -274.29    -0.006
    -273.00     0.059
    -271.72    -0.108
    -270.43    -0.006
    -269.14     0.025
    -267.85     0.010
    -266.56    -0.003
    -265.28    -0.021
    -263.99    -0.018
    -262.70    -0.055
    -261.41     0.027
    -260.12     0.059
    -258.83    -0.029
    -257.55     0.092
    -256.26    -0.067
    -254.97    -0.096
    -253.68    -0.073
    -252.39     0.022
    -251.10    -0.092
    -249.82    -0.015
    -248.53    -0.040
    -247.24    -0.083
    -245.95    -0.061
    -244.66    -0.018
    -243.38     0.030
    -242.09     0.051
    -240.80     0.035
    -239.51    -0.019
    -238.22     0.057
    -236.93    -0.080
    -235.65     0.012
    -234.36    -0.010
    -233.07    -0.002
    -231.78     0.003
    -230.49     0.025
    -229.20    -0.030
    -227.92     0.093
    -226.63    -0.001
    -225.34     0.061
    -224.05     0.013
    -222.76    -0.038
    -221.48     0.014
    -220.19     0.020
    -218.90     0.137
    -217.61     0.017
    -216.32     0.064
    -215.03     0.123
    -213.75     0.089
    -212.46    -0.059
    -211.17    -0.086
    -209.88    -0.063
    -208.59     0.029
    -207.30    -0.095
    -206.02    -0.073
    -204.73    -0.052
    -203.44     0.063
    -202.15    -0.042
    -200.86    -0.002
    -199.58     0.083
    -198.29    -0.017
    -197.00    -0.001
    -195.71     0.065
    -194.42     0.075
    -193.13     0.051
    -191.85     0.133
    -190.56     0.031
    -189.27     0.048
    -187.98     0.034
    -186.69     0.031
    -185.40     0.025
    -184.12     0.056
    -182.83     0.098
    -181.54    -0.004
    -180.25     0.029
    -178.96     0.115
    -177.68     0.064
    -176.39     0.091
    -175.10     0.166
    -173.81     0.228
    -172.52     0.298
    -171.23     0.271
    -169.95     0.240
    -168.66     0.298
    -167.37     0.299
    -166.08     0.455
    -164.79     0.394
    -163.50     0.603
    -162.22     0.525
    -160.93     0.748
    -159.64     0.777
    -158.35     0.880
    -157.06     0.988
    -155.78     1.083
    -154.49     1.028
    -153.20     1.053
    -151.91     1.053
    -150.62     0.942
    -149.33     0.832
    -148.05     0.847
    -146.76     0.700
    -145.47     0.633
    -144.18     0.684
    -142.89     0.564
    -141.60     0.474
    -140.32     0.516
    -139.03     0.473
    -137.74     0.450
    -136.45     0.529
    -135.16     0.598
    -133.88     0.560
    -132.59     0.632
    -131.30     0.774
    -130.01     0.767
    -128.72     0.971
    -127.43     1.436
    -126.15     1.529
    -124.86     1.653
    -123.57     1.953
    -122.28     2.386
    -120.99     2.853
    -119.70     3.244
    -118.42     3.682
    -117.13     4.227
    -115.84     4.573
    -114.55     4.591
    -113.26     4.605
    -111.98     4.840
    -110.69     4.957
    -109.40     5.193
    -108.11     5.451
    -106.82     5.679
    -105.53     5.938
    -104.25     6.139
    -102.96     5.984
    -101.67     6.109
    -100.38     6.193
     -99.09     6.210
     -97.80     6.306
     -96.52     6.126
     -95.23     5.688
     -93.94     5.224
     -92.65     4.723
     -91.36     4.322
     -90.08     4.093
     -88.79     3.646
     -87.50     3.520
     -86.21     3.646
     -84.92     3.918
     -83.63     4.335
     -82.35     4.824
     -81.06     5.778
     -79.77     7.042
     -78.48     8.807
     -77.19    10.898
     -75.90    12.894
     -74.62    13.989
     -73.33    14.547
     -72.04    14.869
     -70.75    14.901
     -69.46    15.414
     -68.18    15.650
     -66.89    16.616
     -65.60    18.759
     -64.31    23.848
     -63.02    32.278
     -61.73    43.142
     -60.45    53.508
     -59.16    61.906
     -57.87    70.837
     -56.58    80.414
     -55.29    88.564
     -54.00    90.672
     -52.72    78.804
     -51.43    64.039
     -50.14    55.854
     -48.85    52.781
     -47.56    52.685
     -46.28    55.332
     -44.99    58.042
     -43.70    58.119
     -42.41    55.855
     -41.12    55.304
     -39.83    57.919
     -38.55    61.798
     -37.26    63.923
     -35.97    63.232
     -34.68    59.923
     -33.39    54.772
     -32.10    50.555
     -30.82    45.511
     -29.53    36.945
     -28.24    27.496
     -26.95    19.742
     -25.66    15.251
     -24.38    12.875
     -23.09    11.398
     -21.80    10.427
     -20.51    10.041
     -19.22     9.927
     -17.93    10.419
     -16.65    11.390
     -15.36    13.112
     -14.07    15.659
     -12.78    19.625
     -11.49    25.719
     -10.20    33.245
      -8.92    39.785
      -7.63    45.502
      -6.34    49.618
      -5.05    52.583
      -3.76    55.287
      -2.48    60.410
      -1.19    65.837
       0.10    66.181
       1.39    60.687
       2.68    50.216
       3.97    34.991
       5.25    21.011
       6.54    13.562
       7.83     9.303
       9.12     6.730
      10.41     5.099
      11.70     3.981
      12.98     3.089
      14.27     2.490
      15.56     2.009
      16.85     1.615
      18.14     1.425
      19.42     1.099
      20.71     0.906
      22.00     0.733
      23.29     0.533
      24.58     0.557
      25.87     0.402
      27.15     0.292
      28.44     0.254
      29.73     0.333
      31.02     0.086
      32.31     0.039
      33.60     0.194
      34.88     0.142
      36.17     0.113
      37.46     0.038
      38.75     0.174
      40.04     0.017
      41.32     0.051
      42.61     0.113
      43.90     0.122
      45.19    -0.025
      46.48    -0.014
      47.77     0.079
      49.05    -0.017
      50.34    -0.097
      51.63     0.056
      52.92    -0.077
      54.21    -0.001
      55.50     0.087
      56.78     0.014
      58.07    -0.040
      59.36    -0.002
      60.65    -0.140
      61.94    -0.010
      63.22    -0.017
      64.51    -0.093
      65.80    -0.035
      67.09     0.125
      68.38     0.110
      69.67     0.032
      70.95    -0.043
      72.24    -0.050
      73.53     0.070
      74.82    -0.034
      76.11    -0.027
      77.40     0.033
      78.68    -0.004
      79.97    -0.037
      81.26    -0.002
      82.55    -0.040
      83.84    -0.016
      85.12     0.105
      86.41     0.106
      87.70     0.094
      88.99     0.102
      90.28     0.003
      91.57     0.031
      92.85     0.002
      94.14     0.007
      95.43     0.017
      96.72     0.014
      98.01     0.125
      99.30    -0.081
     100.58    -0.004
     101.87     0.017
     103.16     0.117
     104.45     0.009
     105.74    -0.007
     107.02    -0.003
     108.31    -0.059
     109.60    -0.066
     110.89    -0.074
     112.18    -0.055
     113.47     0.027
     114.75    -0.046
     116.04    -0.094
     117.33    -0.050
     118.62     0.046
     119.91    -0.092
     121.20     0.149
     122.48    -0.047
     123.77    -0.032
     125.06    -0.027
     126.35    -0.058
     127.64    -0.122
     128.92     0.003
     130.21     0.008
     131.50     0.004
     132.79     0.002
     134.08    -0.006
     135.37     0.041
     136.65     0.045
     137.94     0.025
     139.23     0.003
     140.52    -0.020
     141.81     0.031
     143.09    -0.084
     144.38     0.048
     145.67     0.038
     146.96    -0.062
     148.25    -0.112
     149.54    -0.020
     150.82     0.103
     152.11     0.029
     153.40    -0.116
     154.69     0.028
     155.98    -0.038
     157.27    -0.005
     158.55    -0.010
     159.84     0.103
     161.13     0.059
     162.42    -0.033
     163.71    -0.029
     164.99     0.042
     166.28    -0.022
     167.57    -0.023
     168.86    -0.035
     170.15    -0.051
     171.44    -0.032
     172.72     0.006
     174.01     0.144
     175.30    -0.002
     176.59    -0.045
     177.88    -0.104
     179.17    -0.034
     180.45    -0.018
     181.74    -0.035
     183.03     0.052
     184.32     0.093
     185.61    -0.021
     186.89    -0.060
     188.18     0.039
     189.47     0.102
     190.76    -0.067
     192.05     0.009
     193.34    -0.008
     194.62    -0.050
     195.91    -0.042
     197.20    -0.007
     198.49    -0.076
     199.78    -0.001
     201.07     0.024
     202.35    -0.063
     203.64    -0.080
     204.93     0.044
     206.22     0.030
     207.51    -0.016
     208.79     0.026
     210.08     0.104
     211.37    -0.015
     212.66     0.042
     213.95    -0.043
     215.24     0.034
     216.52    -0.057
     217.81    -0.009
     219.10    -0.030
     220.39     0.067
     221.68     0.048
     222.97     0.031
     224.25    -0.034
     225.54    -0.041
     226.83    -0.019
     228.12     0.020
     229.41    -0.034
     230.69    -0.058
     231.98     0.089
     233.27     0.082
     234.56     0.104
     235.85     0.092
     237.14     0.022
     238.42     0.009
     239.71    -0.048
     241.00     0.003
     242.29     0.069
     243.58     0.063
     244.87    -0.034
     246.15    -0.008
     247.44     0.144
     248.73     0.079
     250.02     0.016
     251.31    -0.021
     252.59     0.082
     253.88     0.024
     255.17    -0.022
     256.46     0.017
     257.75     0.099
     259.04     0.053
     260.32     0.010
     261.61    -0.012
     262.90     0.049
     264.19     0.040
     265.48     0.080
     266.77     0.015
     268.05    -0.001
     269.34    -0.046
     270.63     0.102
     271.92     0.045
     273.21     0.058
     274.49    -0.107
     275.78    -0.049
     277.07     0.023
     278.36     0.038
     279.65    -0.026
     280.94     0.062
     282.22    -0.024
     283.51    -0.060
     284.80    -0.053
     286.09    -0.029
     287.38     0.036
     288.67     0.082
     289.95    -0.035
     291.24    -0.091
     292.53     0.024
     293.82    -0.013
     295.11    -0.033
     296.39     0.031
     297.68    -0.060
     298.97    -0.050
     300.26    -0.013
     301.55     0.049
     302.84    -0.049
     304.12     0.030
     305.41     0.042
     306.70     0.031
     307.99    -0.122
     309.28    -0.024
     310.57    -0.069
     311.85     0.019
     313.14    -0.044
     314.43     0.012
     315.72    -0.006
     317.01    -0.105
     318.29     0.025
     319.58     0.062
     320.87     0.029
     322.16     0.104
     323.45     0.093
     324.74     0.067
     326.02    -0.031
     327.31    -0.052
     328.60    -0.028
     329.89    -0.036
     331.18    -0.035
     332.47     0.052
     333.75    -0.062
     335.04     0.015
     336.33     0.069
     337.62     0.087
     338.91     0.037
     340.19    -0.027
     341.48     0.033
     342.77     0.001
     344.06     0.024
     345.35     0.118
     346.64     0.060
     347.92    -0.012
     349.21     0.072
     350.50     0.039
     351.79     0.022
     353.08     0.045
     354.37    -0.006
     355.65    -0.050
     356.94     0.035
     358.23    -0.093
     359.52     0.007
     360.81     0.018
     362.09    -0.062
     363.38    -0.022
     364.67    -0.029
     365.96    -0.037
     367.25    -0.093
     368.54     0.075
     369.82    -0.013
     371.11     0.051
     372.40    -0.016
     373.69    -0.004
     374.98     0.034
     376.27     0.041
     377.55     0.075
     378.84     0.076
     380.13    -0.047
     381.42     0.013
     382.71     0.085
     383.99     0.056
     385.28     0.055
     386.57     0.057
     387.86    -0.050
     389.15    -0.060
     390.44     0.022
     391.72     0.069
     393.01     0.094
     394.30     0.009
     395.59    -0.049
     396.88    -0.082
     398.17    -0.011
     399.45    -0.040
%%GASS      0  datapoints: v_lsr [km/s] and T_B [K] for beam weighted average and median within 6 arcmin
%%LAB     777  datapoints: v_lsr [km/s] and T_B [K]
    -399.85     0.153
    -398.82     0.058
    -397.79    -0.054
    -396.76    -0.063
    -395.73    -0.016
    -394.70    -0.010
    -393.67     0.079
    -392.63    -0.083
    -391.60     0.173
    -390.57    -0.078
    -389.54     0.046
    -388.51    -0.065
    -387.48    -0.036
    -386.45     0.159
    -385.42     0.114
    -384.39     0.010
    -383.36    -0.126
    -382.33    -0.112
    -381.30    -0.023
    -380.27    -0.158
    -379.24     0.007
    -378.21    -0.065
    -377.18    -0.069
    -376.15    -0.043
    -375.12    -0.186
    -374.09     0.036
    -373.05     0.123
    -372.02     0.063
    -370.99     0.129
    -369.96    -0.049
    -368.93    -0.006
    -367.90     0.029
    -366.87     0.127
    -365.84    -0.151
    -364.81    -0.143
    -363.78    -0.050
    -362.75    -0.050
    -361.72    -0.018
    -360.69    -0.097
    -359.66    -0.058
    -358.63    -0.150
    -357.60    -0.033
    -356.57     0.027
    -355.54    -0.126
    -354.50     0.072
    -353.47     0.020
    -352.44    -0.043
    -351.41     0.031
    -350.38     0.031
    -349.35    -0.126
    -348.32    -0.001
    -347.29    -0.046
    -346.26     0.031
    -345.23    -0.182
    -344.20    -0.073
    -343.17     0.084
    -342.14     0.012
    -341.11    -0.054
    -340.08     0.006
    -339.05     0.051
    -338.02     0.024
    -336.99    -0.046
    -335.96     0.023
    -334.92     0.038
    -333.89     0.076
    -332.86    -0.091
    -331.83    -0.104
    -330.80     0.006
    -329.77     0.074
    -328.74    -0.016
    -327.71    -0.112
    -326.68    -0.041
    -325.65     0.062
    -324.62     0.045
    -323.59    -0.058
    -322.56    -0.069
    -321.53    -0.011
    -320.50     0.123
    -319.47     0.021
    -318.44    -0.110
    -317.41     0.095
    -316.38     0.102
    -315.34     0.172
    -314.31    -0.114
    -313.28     0.093
    -312.25    -0.041
    -311.22    -0.129
    -310.19    -0.105
    -309.16     0.024
    -308.13    -0.130
    -307.10     0.037
    -306.07     0.028
    -305.04     0.092
    -304.01     0.126
    -302.98     0.083
    -301.95    -0.079
    -300.92     0.232
    -299.89     0.098
    -298.86    -0.130
    -297.83    -0.020
    -296.79     0.100
    -295.76     0.093
    -294.73     0.215
    -293.70     0.196
    -292.67    -0.061
    -291.64     0.125
    -290.61     0.138
    -289.58    -0.067
    -288.55     0.101
    -287.52    -0.040
    -286.49    -0.061
    -285.46    -0.171
    -284.43     0.174
    -283.40    -0.099
    -282.37     0.036
    -281.34     0.048
    -280.31     0.076
    -279.28     0.046
    -278.25    -0.163
    -277.21    -0.060
    -276.18     0.115
    -275.15     0.148
    -274.12     0.080
    -273.09    -0.014
    -272.06     0.042
    -271.03     0.033
    -270.00     0.021
    -268.97    -0.013
    -267.94     0.010
    -266.91    -0.074
    -265.88    -0.049
    -264.85    -0.048
    -263.82     0.002
    -262.79     0.078
    -261.76     0.131
    -260.73    -0.151
    -259.70     0.115
    -258.66    -0.078
    -257.63    -0.035
    -256.60    -0.041
    -255.57    -0.071
    -254.54    -0.070
    -253.51    -0.073
    -252.48    -0.032
    -251.45    -0.022
    -250.42    -0.024
    -249.39    -0.016
    -248.36    -0.003
    -247.33     0.098
    -246.30    -0.152
    -245.27     0.204
    -244.24    -0.052
    -243.21     0.108
    -242.18    -0.090
    -241.15    -0.104
    -240.12    -0.022
    -239.08     0.046
    -238.05     0.046
    -237.02     0.080
    -235.99     0.002
    -234.96    -0.006
    -233.93    -0.037
    -232.90     0.100
    -231.87    -0.058
    -230.84    -0.031
    -229.81     0.018
    -228.78     0.058
    -227.75     0.089
    -226.72     0.126
    -225.69     0.018
    -224.66     0.068
    -223.63     0.119
    -222.60    -0.052
    -221.57    -0.125
    -220.54     0.070
    -219.50     0.051
    -218.47     0.011
    -217.44    -0.009
    -216.41    -0.073
    -215.38    -0.178
    -214.35     0.012
    -213.32     0.001
    -212.29     0.033
    -211.26     0.096
    -210.23    -0.151
    -209.20    -0.164
    -208.17    -0.054
    -207.14     0.110
    -206.11     0.082
    -205.08     0.036
    -204.05     0.001
    -203.02    -0.116
    -201.99     0.078
    -200.95    -0.141
    -199.92     0.138
    -198.89     0.046
    -197.86     0.015
    -196.83     0.072
    -195.80    -0.077
    -194.77    -0.022
    -193.74    -0.018
    -192.71     0.054
    -191.68     0.031
    -190.65    -0.110
    -189.62     0.149
    -188.59     0.085
    -187.56    -0.117
    -186.53     0.123
    -185.50     0.004
    -184.47    -0.006
    -183.44     0.189
    -182.41    -0.019
    -181.37     0.132
    -180.34     0.001
    -179.31     0.029
    -178.28    -0.039
    -177.25     0.193
    -176.22     0.119
    -175.19     0.207
    -174.16    -0.032
    -173.13     0.152
    -172.10    -0.026
    -171.07     0.162
    -170.04     0.323
    -169.01     0.318
    -167.98     0.198
    -166.95     0.287
    -165.92     0.441
    -164.89     0.535
    -163.86     0.609
    -162.82     0.552
    -161.79     0.722
    -160.76     0.578
    -159.73     0.480
    -158.70     0.771
    -157.67     0.846
    -156.64     0.769
    -155.61     0.924
    -154.58     0.916
    -153.55     0.934
    -152.52     0.971
    -151.49     0.904
    -150.46     0.900
    -149.43     0.677
    -148.40     0.844
    -147.37     0.954
    -146.34     0.750
    -145.31     0.588
    -144.28     0.484
    -143.24     0.510
    -142.21     0.635
    -141.18     0.634
    -140.15     0.485
    -139.12     0.614
    -138.09     0.527
